TimeStamp,Delta_TP9,Delta_AF7,Delta_AF8,Delta_TP10,Theta_TP9,Theta_AF7,Theta_AF8,Theta_TP10,Alpha_TP9,Alpha_AF7,Alpha_AF8,Alpha_TP10,Beta_TP9,Beta_AF7,Beta_AF8,Beta_TP10,Gamma_TP9,Gamma_AF7,Gamma_AF8,Gamma_TP10,RAW_TP9,RAW_AF7,RAW_AF8,RAW_TP10,AUX_1,AUX_2,AUX_3,AUX_4,Accelerometer_X,Accelerometer_Y,Accelerometer_Z,Gyro_X,Gyro_Y,Gyro_Z,Optics1,Optics2,Optics3,Optics4,Optics5,Optics6,Optics7,Optics8,Optics9,Optics10,Optics11,Optics12,Optics13,Optics14,Optics15,Optics16,Heart_Rate,HeadBandOn,HSI_TP9,HSI_AF7,HSI_AF8,HSI_TP10,Battery,Elements
2025-09-03 19:51:54.574,,,,,,,,,,,,,,,,,,,,,,,,,,,,,,,,,,,,,,,,,,,,,,,,,,,,,,,,,,/muse/event/connected MuseS-C51A
2025-09-03 19:51:54.599,0.0,1.0794953,1.0892307,0.0,0.0,0.30906808,0.705056,0.0,0.0,0.38644812,0.3628081,0.0,0.0,0.120606504,0.32291225,0.0,0.0,-0.6778254,-0.33477154,0.0,340.74954,687.9601,661.14264,500.06104,768.6779,778.67914,791.5126,1337.9509,0.337646484375,-0.12957763671875,0.93353271484375,-0.067291259765625,1.00189208984375,-3.63372802734375,7.893775838638152,7.534431013518346,5.519292372982381,4.601566888396157,0.0,0.0,0.0,0.0,0.0,0.0,0.0,0.0,0.0,0.0,0.0,0.0,88.7688,1,2.0,1.0,1.0,2.0,67.89
2025-09-03 19:51:55.547,,,,,,,,,,,,,,,,,,,,,,,,,,,,,,,,,,,,,,,,,,,,,,,,,,,,,,,,,,/muse/elements/blink
2025-09-03 19:51:55.613,0.0,1.0794953,1.0892307,0.0,0.0,0.30906808,0.705056,0.0,0.0,0.38644812,0.3628081,0.0,0.0,0.120606504,0.32291225,0.0,0.0,-0.6778254,-0.33477154,0.0,346.14844,752.3927,731.4167,352.87494,765.5802,768.5009,757.9686,1266.6147,0.42486572265625,0.008056640625,0.9176025390625,6.945953369140625,0.478515625,-2.452392578125,7.83850845194669,7.484778866556994,5.450841379968052,4.549473332856496,0.0,0.0,0.0,0.0,0.0,0.0,0.0,0.0,0.0,0.0,0.0,0.0,87.97931,1,2.0,1.0,1.0,2.0,67.89
2025-09-03 19:51:55.814,,,,,,,,,,,,,,,,,,,,,,,,,,,,,,,,,,,,,,,,,,,,,,,,,,,,,,,,,,/muse/elements/blink
2025-09-03 19:51:56.097,,,,,,,,,,,,,,,,,,,,,,,,,,,,,,,,,,,,,,,,,,,,,,,,,,,,,,,,,,/muse/elements/blink
2025-09-03 19:51:56.618,0.0,1.0794953,1.0892307,0.0,0.0,0.30906808,0.705056,0.0,0.0,0.38644812,0.3628081,0.0,0.0,0.120606504,0.32291225,0.0,0.0,-0.6778254,-0.33477154,0.0,333.58054,746.02026,707.43146,946.1332,785.1401,771.24457,753.4548,1225.1938,0.3914794921875,0.08343505859375,0.909912109375,-3.671112060546875,-0.91217041015625,-2.280426025390625,7.8796767040984195,7.5276561047135395,5.498876093746275,4.592289535798583,0.0,0.0,0.0,0.0,0.0,0.0,0.0,0.0,0.0,0.0,0.0,0.0,85.16286,1,2.0,1.0,1.0,4.0,67.87
2025-09-03 19:51:57.175,,,,,,,,,,,,,,,,,,,,,,,,,,,,,,,,,,,,,,,,,,,,,,,,,,,,,,,,,,/muse/elements/blink
2025-09-03 19:51:57.621,0.0,1.2820879,1.2528791,0.0,0.0,0.44899994,0.3993205,0.0,0.0,0.17258321,0.4704453,0.0,0.0,-0.1390905,0.20747973,0.0,0.0,-0.33917615,-0.08020152,0.0,1158.3715,767.61584,745.1352,890.10864,764.6066,754.8709,751.5962,1254.7549,0.44744873046875,-0.1640625,0.88983154296875,-0.710296630859375,0.949554443359375,2.788848876953125,7.849433755334621,7.502875807643707,5.459111651527072,4.562779009608278,0.0,0.0,0.0,0.0,0.0,0.0,0.0,0.0,0.0,0.0,0.0,0.0,83.59824,1,2.0,1.0,1.0,2.0,67.87
2025-09-03 19:51:58.622,0.0,1.3913416,1.2163615,0.0,0.0,-0.01398607,0.3152491,0.0,0.0,0.30875498,0.3953918,0.0,0.0,-0.1137427,0.101778,0.0,0.0,-0.53167677,-0.33937877,0.0,679.46344,757.8801,738.2317,706.3694,762.748,773.1917,772.48364,1232.9823,0.4210205078125,-0.15826416015625,0.89996337890625,1.742095947265625,6.9384765625,1.173858642578125,7.861457692582791,7.515967861144887,5.470555754237894,4.573917936246811,0.0,0.0,0.0,0.0,0.0,0.0,0.0,0.0,0.0,0.0,0.0,0.0,83.34114,1,2.0,1.0,1.0,2.0,67.87
2025-09-03 19:51:59.528,,,,,,,,,,,,,,,,,,,,,,,,,,,,,,,,,,,,,,,,,,,,,,,,,,,,,,,,,,/muse/elements/blink
2025-09-03 19:51:59.624,0.0,1.3716213,1.0079561,0.0,0.0,0.30184084,0.29495594,0.0,0.0,0.6071356,0.35033217,0.0,0.0,0.12917171,-0.049952388,0.0,0.0,-0.70428354,-0.5257089,0.0,632.28955,727.78796,715.22003,753.01227,946.4872,1036.4097,1031.0109,1450.0,-0.115966796875,0.03466796875,1.01556396484375,-2.100982666015625,18.5125732421875,16.800384521484375,7.884345898004435,7.550513792527955,5.48669956846196,4.598881338960017,0.0,0.0,0.0,0.0,0.0,0.0,0.0,0.0,0.0,0.0,0.0,0.0,84.46712,1,2.0,1.0,1.0,2.0,67.87
2025-09-03 19:51:59.917,,,,,,,,,,,,,,,,,,,,,,,,,,,,,,,,,,,,,,,,,,,,,,,,,,,,,,,,,,/muse/elements/blink
2025-09-03 19:52:00.571,,,,,,,,,,,,,,,,,,,,,,,,,,,,,,,,,,,,,,,,,,,,,,,,,,,,,,,,,,/muse/elements/blink
2025-09-03 19:52:00.635,0.0,1.0632355,1.2375324,0.0,0.0,0.40569347,0.36499,0.0,0.0,0.58319885,0.3425091,0.0,0.0,0.183721,0.02008002,0.0,0.0,-0.562453,-0.14529197,0.0,1120.2252,747.25934,731.59375,912.7663,880.8155,909.6686,918.25366,1423.2711,-0.232421875,-0.0196533203125,1.16448974609375,0.994415283203125,9.248809814453125,10.54229736328125,7.964485134587417,7.617622010824213,5.577916696469018,4.665531793147844,0.0,0.0,0.0,0.0,0.0,0.0,0.0,0.0,0.0,0.0,0.0,0.0,86.395615,1,4.0,1.0,1.0,4.0,67.87
2025-09-03 19:52:00.789,,,,,,,,,,,,,,,,,,,,,,,,,,,,,,,,,,,,,,,,,,,,,,,,,,,,,,,,,,/muse/elements/blink
2025-09-03 19:52:01.646,0.0,0.9134961,1.5377979,0.0,0.0,0.35576653,0.4272362,0.0,0.0,0.2728817,0.3220125,0.0,0.0,0.15880169,0.12890986,0.0,0.0,-0.47091597,-0.007814723,0.0,532.7199,803.2839,752.83527,715.8396,595.2054,523.60376,512.2749,1029.2407,0.07440185546875,-0.0186767578125,0.19097900390625,2.011260986328125,9.458160400390625,-6.975860595703125,7.981025677705458,7.626502634527812,5.586003862384665,4.666630427008083,0.0,0.0,0.0,0.0,0.0,0.0,0.0,0.0,0.0,0.0,0.0,0.0,87.804886,1,4.0,1.0,1.0,4.0,67.87
2025-09-03 19:52:02.652,0.0,0.9134961,1.5377979,0.0,0.0,0.35576653,0.4272362,0.0,0.0,0.2728817,0.3220125,0.0,0.0,0.15880169,0.12890986,0.0,0.0,-0.47091597,-0.007814723,0.0,2.832204,665.47943,635.12177,2.6551914,548.3855,543.07513,466.42862,970.6495,-0.40411376953125,0.03448486328125,1.7994384765625,1.069183349609375,-8.396453857421875,-2.093505859375,8.031654388098133,7.689155282168658,5.665929475717045,4.745487924087452,0.0,0.0,0.0,0.0,0.0,0.0,0.0,0.0,0.0,0.0,0.0,0.0,89.54995,1,4.0,1.0,1.0,4.0,67.87
2025-09-03 19:52:02.784,,,,,,,,,,,,,,,,,,,,,,,,,,,,,,,,,,,,,,,,,,,,,,,,,,,,,,,,,,/muse/elements/blink
2025-09-03 19:52:03.165,,,,,,,,,,,,,,,,,,,,,,,,,,,,,,,,,,,,,,,,,,,,,,,,,,,,,,,,,,/muse/elements/blink
2025-09-03 19:52:03.550,,,,,,,,,,,,,,,,,,,,,,,,,,,,,,,,,,,,,,,,,,,,,,,,,,,,,,,,,,/muse/elements/blink
2025-09-03 19:52:03.662,0.0,0.9134961,1.5377979,0.0,0.0,0.35576653,0.4272362,0.0,0.0,0.2728817,0.3220125,0.0,0.0,0.15880169,0.12890986,0.0,0.0,-0.47091597,-0.007814723,0.0,1450.0,399.3408,537.4992,1448.6724,1027.1166,1078.1847,1117.3931,1450.0,-0.5615234375,-0.0654296875,1.7159423828125,1.846771240234375,1.637420654296875,-5.929107666015625,7.9447707603175735,7.61850702143385,5.5541434804377365,4.663181937391221,0.0,0.0,0.0,0.0,0.0,0.0,0.0,0.0,0.0,0.0,0.0,0.0,89.54995,1,4.0,1.0,1.0,4.0,67.87
2025-09-03 19:52:04.065,,,,,,,,,,,,,,,,,,,,,,,,,,,,,,,,,,,,,,,,,,,,,,,,,,,,,,,,,,/muse/elements/blink
2025-09-03 19:52:04.406,,,,,,,,,,,,,,,,,,,,,,,,,,,,,,,,,,,,,,,,,,,,,,,,,,,,,,,,,,/muse/elements/blink
2025-09-03 19:52:04.671,0.0,0.9134961,1.5377979,0.0,0.0,0.35576653,0.4272362,0.0,0.0,0.2728817,0.3220125,0.0,0.0,0.15880169,0.12890986,0.0,0.0,-0.47091597,-0.007814723,0.0,91.86962,754.5169,696.01416,2.7436976,177.36678,99.127144,61.688946,329.86328,0.006103515625,-0.0274658203125,0.14715576171875,8.5235595703125,10.90118408203125,-22.02667236328125,8.147468707531651,7.817024056457574,5.796087070548125,4.8768967408149155,0.0,0.0,0.0,0.0,0.0,0.0,0.0,0.0,0.0,0.0,0.0,0.0,92.325966,1,4.0,1.0,1.0,4.0,67.87
2025-09-03 19:52:05.156,,,,,,,,,,,,,,,,,,,,,,,,,,,,,,,,,,,,,,,,,,,,,,,,,,,,,,,,,,/muse/elements/blink
2025-09-03 19:52:05.541,,,,,,,,,,,,,,,,,,,,,,,,,,,,,,,,,,,,,,,,,,,,,,,,,,,,,,,,,,/muse/elements/blink
2025-09-03 19:52:05.677,0.0,0.9134961,1.5377979,0.0,0.0,0.35576653,0.4272362,0.0,0.0,0.2728817,0.3220125,0.0,0.0,0.15880169,0.12890986,0.0,0.0,-0.47091597,-0.007814723,0.0,202.5911,650.8759,671.23236,167.8966,477.93445,487.75867,484.39542,586.17773,-0.205078125,-0.00933837890625,1.50341796875,-5.78704833984375,-18.161163330078125,10.011444091796875,8.066261354695659,7.7172619984264355,5.712926590849486,4.7814987006175045,0.0,0.0,0.0,0.0,0.0,0.0,0.0,0.0,0.0,0.0,0.0,0.0,126.3108,1,4.0,1.0,1.0,4.0,67.87
2025-09-03 19:52:05.924,,,,,,,,,,,,,,,,,,,,,,,,,,,,,,,,,,,,,,,,,,,,,,,,,,,,,,,,,,/muse/elements/blink
2025-09-03 19:52:06.273,,,,,,,,,,,,,,,,,,,,,,,,,,,,,,,,,,,,,,,,,,,,,,,,,,,,,,,,,,/muse/elements/blink
2025-09-03 19:52:06.684,0.0,0.9134961,1.5377979,0.0,0.0,0.35576653,0.4272362,0.0,0.0,0.2728817,0.3220125,0.0,0.0,0.15880169,0.12890986,0.0,0.0,-0.47091597,-0.007814723,0.0,1104.6481,781.95386,771.95264,870.9028,1052.4293,1144.653,1159.1681,1446.1057,0.06719970703125,-0.04583740234375,0.20172119140625,-0.2691650390625,24.411773681640625,8.202056884765625,8.217292992871277,7.837379300479221,5.888555420451565,4.905461221181127,0.0,0.0,0.0,0.0,0.0,0.0,0.0,0.0,0.0,0.0,0.0,0.0,135.09303,1,4.0,1.0,1.0,4.0,67.87
2025-09-03 19:52:07.407,,,,,,,,,,,,,,,,,,,,,,,,,,,,,,,,,,,,,,,,,,,,,,,,,,,,,,,,,,/muse/elements/blink
2025-09-03 19:52:07.687,0.0,0.9134961,1.5377979,0.0,0.0,0.35576653,0.4272362,0.0,0.0,0.2728817,0.3220125,0.0,0.0,0.15880169,0.12890986,0.0,0.0,-0.47091597,-0.007814723,0.0,95.05585,725.30975,712.2993,2.832204,325.70346,225.86827,154.88617,867.98206,0.04388427734375,-0.19464111328125,1.19537353515625,-10.52734375,-22.50518798828125,-6.17584228515625,8.116340748158215,7.731696826645686,5.778173235104785,4.804112247574088,0.0,0.0,0.0,0.0,0.0,0.0,0.0,0.0,0.0,0.0,0.0,0.0,139.62856,1,4.0,1.0,2.0,4.0,67.86
2025-09-03 19:52:07.881,,,,,,,,,,,,,,,,,,,,,,,,,,,,,,,,,,,,,,,,,,,,,,,,,,,,,,,,,,/muse/elements/blink
2025-09-03 19:52:08.283,,,,,,,,,,,,,,,,,,,,,,,,,,,,,,,,,,,,,,,,,,,,,,,,,,,,,,,,,,/muse/elements/blink
2025-09-03 19:52:08.694,0.0,0.9134961,1.5377979,0.0,0.0,0.35576653,0.4272362,0.0,0.0,0.2728817,0.3220125,0.0,0.0,0.15880169,0.12890986,0.0,0.0,-0.47091597,-0.007814723,0.0,581.2214,730.9742,713.98096,607.5963,739.5593,758.41113,715.39703,1338.3049,0.31036376953125,-0.0361328125,1.013427734375,-2.504730224609375,-15.0732421875,16.4788818359375,8.140388622654555,7.737891900913144,5.823339293803495,4.823155234484896,0.0,0.0,0.0,0.0,0.0,0.0,0.0,0.0,0.0,0.0,0.0,0.0,146.69139,1,4.0,1.0,1.0,4.0,67.86
2025-09-03 19:52:08.887,,,,,,,,,,,,,,,,,,,,,,,,,,,,,,,,,,,,,,,,,,,,,,,,,,,,,,,,,,/muse/elements/blink
2025-09-03 19:52:09.276,,,,,,,,,,,,,,,,,,,,,,,,,,,,,,,,,,,,,,,,,,,,,,,,,,,,,,,,,,/muse/elements/blink
2025-09-03 19:52:09.703,0.0,0.77951866,1.5377979,0.0,0.0,0.51234263,0.4272362,0.0,0.0,0.51502204,0.3220125,0.0,0.0,-0.080215134,0.12890986,0.0,0.0,-0.60722613,-0.007814723,0.0,998.529,726.2833,728.14197,889.4891,686.01294,685.57043,725.04425,770.71356,0.31170654296875,-0.13201904296875,1.00469970703125,3.506622314453125,-12.12738037109375,8.5833740234375,8.051429797582433,7.659309062298834,5.726354338030184,4.751530410318766,0.0,0.0,0.0,0.0,0.0,0.0,0.0,0.0,0.0,0.0,0.0,0.0,146.69139,1,2.0,1.0,1.0,2.0,67.86
2025-09-03 19:52:10.047,,,,,,,,,,,,,,,,,,,,,,,,,,,,,,,,,,,,,,,,,,,,,,,,,,,,,,,,,,/muse/elements/blink
2025-09-03 19:52:10.291,,,,,,,,,,,,,,,,,,,,,,,,,,,,,,,,,,,,,,,,,,,,,,,,,,,,,,,,,,/muse/elements/blink
2025-09-03 19:52:10.704,0.0,0.69548434,1.0341318,0.0,0.0,0.3852695,0.6523291,0.0,0.0,0.2720138,0.40626553,0.0,0.0,-0.08869332,0.14625736,0.0,0.0,-0.56182677,-0.104289606,0.0,1370.6982,737.7007,728.496,222.32802,741.6835,732.6558,705.7499,1328.9232,0.319580078125,-0.1505126953125,1.00872802734375,2.340240478515625,9.144134521484375,-13.29376220703125,8.112220871182318,7.730384569534845,5.816167656104714,4.838658178957156,0.0,0.0,0.0,0.0,0.0,0.0,0.0,0.0,0.0,0.0,0.0,0.0,146.69139,1,4.0,1.0,1.0,4.0,67.86
2025-09-03 19:52:10.925,,,,,,,,,,,,,,,,,,,,,,,,,,,,,,,,,,,,,,,,,,,,,,,,,,,,,,,,,,/muse/elements/blink
2025-09-03 19:52:11.157,,,,,,,,,,,,,,,,,,,,,,,,,,,,,,,,,,,,,,,,,,,,,,,,,,,,,,,,,,/muse/elements/blink
2025-09-03 19:52:11.161,,,,,,,,,,,,,,,,,,,,,,,,,,,,,,,,,,,,,,,,,,,,,,,,,,,,,,,,,,/muse/elements/jaw_clench
2025-09-03 19:52:11.513,,,,,,,,,,,,,,,,,,,,,,,,,,,,,,,,,,,,,,,,,,,,,,,,,,,,,,,,,,/muse/elements/blink
2025-09-03 19:52:11.713,0.0,0.63023627,1.1153402,0.0,0.0,0.18287393,0.79643387,0.0,0.0,0.31860253,0.4016738,0.0,0.0,0.08594203,0.24586752,0.0,0.0,-0.3243959,-0.2110373,0.0,356.23816,1389.0192,1449.292,2.9207106,690.5268,668.5772,676.5428,1202.6246,0.22564697265625,-0.03424072265625,0.9697265625,9.40582275390625,26.729583740234375,-1.375732421875,7.946906992823594,7.437232434494433,5.650334978423098,4.61484204754071,0.0,0.0,0.0,0.0,0.0,0.0,0.0,0.0,0.0,0.0,0.0,0.0,132.36302,1,4.0,1.0,1.0,4.0,67.86
2025-09-03 19:52:11.774,,,,,,,,,,,,,,,,,,,,,,,,,,,,,,,,,,,,,,,,,,,,,,,,,,,,,,,,,,/muse/elements/blink
2025-09-03 19:52:12.284,,,,,,,,,,,,,,,,,,,,,,,,,,,,,,,,,,,,,,,,,,,,,,,,,,,,,,,,,,/muse/elements/blink
2025-09-03 19:52:12.530,,,,,,,,,,,,,,,,,,,,,,,,,,,,,,,,,,,,,,,,,,,,,,,,,,,,,,,,,,/muse/elements/blink
2025-09-03 19:52:12.716,0.0,0.487608,0.61704403,0.0,0.0,1.7931793E-4,0.6557358,0.0,0.0,0.21666615,0.36391175,0.0,0.0,0.128927,0.35880727,0.0,0.0,-0.18138663,-0.2355254,0.0,1450.0,764.42957,767.88135,1450.0,729.46954,726.9914,749.82605,1311.222,0.20611572265625,-0.0758056640625,0.93707275390625,-3.7982177734375,-6.183319091796875,-1.42059326171875,8.051857044083638,7.703071311065017,5.772466442552989,4.818882769472856,0.0,0.0,0.0,0.0,0.0,0.0,0.0,0.0,0.0,0.0,0.0,0.0,112.307396,1,4.0,1.0,1.0,4.0,67.86
2025-09-03 19:52:13.717,0.0,0.487608,0.61704403,0.0,0.0,1.7931793E-4,0.6557358,0.0,0.0,0.21666615,0.36391175,0.0,0.0,0.128927,0.35880727,0.0,0.0,-0.18138663,-0.2355254,0.0,547.4119,849.3072,831.69446,502.5392,782.04236,783.724,805.3195,1359.0155,0.2926025390625,-0.14251708984375,1.03125,3.887939453125,16.381683349609375,8.217010498046875,8.003059390124694,7.645484586224161,5.711858474596476,4.756718403547672,0.0,0.0,0.0,0.0,0.0,0.0,0.0,0.0,0.0,0.0,0.0,0.0,102.51323,1,4.0,1.0,1.0,4.0,67.84
2025-09-03 19:52:13.853,,,,,,,,,,,,,,,,,,,,,,,,,,,,,,,,,,,,,,,,,,,,,,,,,,,,,,,,,,/muse/elements/blink
2025-09-03 19:52:14.259,,,,,,,,,,,,,,,,,,,,,,,,,,,,,,,,,,,,,,,,,,,,,,,,,,,,,,,,,,/muse/elements/jaw_clench
2025-09-03 19:52:14.526,,,,,,,,,,,,,,,,,,,,,,,,,,,,,,,,,,,,,,,,,,,,,,,,,,,,,,,,,,/muse/elements/blink
2025-09-03 19:52:14.717,0.0,0.487608,0.61704403,0.0,0.0,1.7931793E-4,0.6557358,0.0,0.0,0.21666615,0.36391175,0.0,0.0,0.128927,0.35880727,0.0,0.0,-0.18138663,-0.2355254,0.0,225.16023,710.79474,880.0189,1450.0,642.4678,591.66516,579.8938,1156.4243,-0.49755859375,0.144775390625,0.82989501953125,-12.598419189453125,3.865509033203125,9.757232666015625,8.13114178766421,7.773628018978137,5.864690651598598,4.882786639010085,0.0,0.0,0.0,0.0,0.0,0.0,0.0,0.0,0.0,0.0,0.0,0.0,96.61706,1,4.0,1.0,1.0,4.0,67.84
2025-09-03 19:52:15.017,,,,,,,,,,,,,,,,,,,,,,,,,,,,,,,,,,,,,,,,,,,,,,,,,,,,,,,,,,/muse/elements/blink
2025-09-03 19:52:15.385,,,,,,,,,,,,,,,,,,,,,,,,,,,,,,,,,,,,,,,,,,,,,,,,,,,,,,,,,,/muse/elements/blink
2025-09-03 19:52:15.633,,,,,,,,,,,,,,,,,,,,,,,,,,,,,,,,,,,,,,,,,,,,,,,,,,,,,,,,,,/muse/elements/blink
2025-09-03 19:52:15.731,0.0,0.487608,0.61704403,0.0,0.0,1.7931793E-4,0.6557358,0.0,0.0,0.21666615,0.36391175,0.0,0.0,0.128927,0.35880727,0.0,0.0,-0.18138663,-0.2355254,0.0,335.35068,856.4762,798.3275,2.9207106,676.4542,661.7622,642.73334,1213.5995,-0.32470703125,0.0430908203125,1.06939697265625,11.91802978515625,-38.0718994140625,-26.819305419921875,8.21778127458694,7.863960136375558,5.970067949359845,4.98849963045085,0.0,0.0,0.0,0.0,0.0,0.0,0.0,0.0,0.0,0.0,0.0,0.0,93.622086,1,4.0,4.0,1.0,4.0,67.84
2025-09-03 19:52:15.982,,,,,,,,,,,,,,,,,,,,,,,,,,,,,,,,,,,,,,,,,,,,,,,,,,,,,,,,,,/muse/elements/blink
2025-09-03 19:52:16.735,0.0,0.487608,0.61704403,0.0,0.0,1.7931793E-4,0.6557358,0.0,0.0,0.21666615,0.36391175,0.0,0.0,0.128927,0.35880727,0.0,0.0,-0.18138663,-0.2355254,0.0,153.11603,782.7504,742.56854,562.1925,755.3134,753.54333,736.37305,1159.7876,-0.02581787109375,-0.12689208984375,0.979248046875,-5.644989013671875,-0.64300537109375,3.7982177734375,8.14316572491238,7.762458574732375,5.885656247764824,4.8917282979281405,0.0,0.0,0.0,0.0,0.0,0.0,0.0,0.0,0.0,0.0,0.0,0.0,93.05334,1,2.0,1.0,1.0,2.0,67.84
2025-09-03 19:52:17.737,0.0,0.487608,0.7858602,0.0,0.0,1.7931793E-4,-0.08431994,0.0,0.0,0.21666615,-0.0465588,0.0,0.0,0.128927,0.4354301,0.0,0.0,-0.18138663,0.20694478,0.0,318.44595,531.83484,282.24683,160.46207,659.107,622.7309,619.5447,1103.232,0.18701171875,0.09100341796875,1.00439453125,-10.78155517578125,6.26556396484375,184.766845703125,8.111549483823284,7.724525188946904,5.8580072956154785,4.854924063610137,0.0,0.0,0.0,0.0,0.0,0.0,0.0,0.0,0.0,0.0,0.0,0.0,94.29506,1,2.0,1.0,1.0,2.0,67.84
2025-09-03 19:52:17.877,,,,,,,,,,,,,,,,,,,,,,,,,,,,,,,,,,,,,,,,,,,,,,,,,,,,,,,,,,/muse/elements/blink
2025-09-03 19:52:18.127,,,,,,,,,,,,,,,,,,,,,,,,,,,,,,,,,,,,,,,,,,,,,,,,,,,,,,,,,,/muse/elements/blink
2025-09-03 19:52:18.503,,,,,,,,,,,,,,,,,,,,,,,,,,,,,,,,,,,,,,,,,,,,,,,,,,,,,,,,,,/muse/elements/blink
2025-09-03 19:52:18.742,0.0,0.487608,0.7858602,0.0,0.0,1.7931793E-4,-0.08431994,0.0,0.0,0.21666615,-0.0465588,0.0,0.0,0.128927,0.4354301,0.0,0.0,-0.18138663,0.20694478,0.0,711.5913,785.2286,746.19727,362.69913,790.539,819.8346,827.8002,1381.9386,-0.3087158203125,0.107177734375,0.919189453125,1.996307373046875,-16.14990234375,17.1966552734375,8.281257897622964,7.870094175428558,6.0493526929404196,4.99142932074482,0.0,0.0,0.0,0.0,0.0,0.0,0.0,0.0,0.0,0.0,0.0,0.0,95.40137,1,4.0,1.0,1.0,2.0,67.80
2025-09-03 19:52:18.877,,,,,,,,,,,,,,,,,,,,,,,,,,,,,,,,,,,,,,,,,,,,,,,,,,,,,,,,,,/muse/elements/blink
2025-09-03 19:52:19.169,,,,,,,,,,,,,,,,,,,,,,,,,,,,,,,,,,,,,,,,,,,,,,,,,,,,,,,,,,/muse/elements/blink
2025-09-03 19:52:19.385,,,,,,,,,,,,,,,,,,,,,,,,,,,,,,,,,,,,,,,,,,,,,,,,,,,,,,,,,,/muse/elements/blink
2025-09-03 19:52:19.749,0.0,0.487608,0.7858602,0.0,0.0,1.7931793E-4,-0.08431994,0.0,0.0,0.21666615,-0.0465588,0.0,0.0,0.128927,0.4354301,0.0,0.0,-0.18138663,0.20694478,0.0,537.3222,744.4271,747.5249,836.38525,766.9963,764.07556,764.7836,1226.6099,-0.3604736328125,0.169677734375,0.90130615234375,1.697235107421875,-1.62994384765625,-3.81317138671875,8.325783086569869,7.884925732541783,6.089361276017453,4.990574827742412,0.0,0.0,0.0,0.0,0.0,0.0,0.0,0.0,0.0,0.0,0.0,0.0,95.89209,1,2.0,1.0,1.0,4.0,67.80
2025-09-03 19:52:19.896,,,,,,,,,,,,,,,,,,,,,,,,,,,,,,,,,,,,,,,,,,,,,,,,,,,,,,,,,,/muse/elements/blink
2025-09-03 19:52:20.274,,,,,,,,,,,,,,,,,,,,,,,,,,,,,,,,,,,,,,,,,,,,,,,,,,,,,,,,,,/muse/elements/blink
2025-09-03 19:52:20.515,,,,,,,,,,,,,,,,,,,,,,,,,,,,,,,,,,,,,,,,,,,,,,,,,,,,,,,,,,/muse/elements/blink
2025-09-03 19:52:20.755,0.0,0.487608,0.7858602,0.0,0.0,1.7931793E-4,-0.08431994,0.0,0.0,0.21666615,-0.0465588,0.0,0.0,0.128927,0.4354301,0.0,0.0,-0.18138663,0.20694478,0.0,625.9171,754.5169,751.2421,679.552,759.56177,784.1665,766.7308,1230.1501,-0.3238525390625,0.1805419921875,0.9366455078125,0.695343017578125,-0.01495361328125,-0.83740234375,8.325630498533725,7.862129079941826,6.091741649381303,4.977696397491834,0.0,0.0,0.0,0.0,0.0,0.0,0.0,0.0,0.0,0.0,0.0,0.0,96.16105,1,2.0,1.0,1.0,2.0,67.80
2025-09-03 19:52:20.888,,,,,,,,,,,,,,,,,,,,,,,,,,,,,,,,,,,,,,,,,,,,,,,,,,,,,,,,,,/muse/elements/blink
2025-09-03 19:52:21.661,,,,,,,,,,,,,,,,,,,,,,,,,,,,,,,,,,,,,,,,,,,,,,,,,,,,,,,,,,/muse/elements/blink
2025-09-03 19:52:21.757,0.0,0.487608,0.7858602,0.0,0.0,1.7931793E-4,-0.08431994,0.0,0.0,0.21666615,-0.0465588,0.0,0.0,0.128927,0.4354301,0.0,0.0,-0.18138663,0.20694478,0.0,894.6225,740.00183,782.7504,565.5558,525.7279,446.07214,429.787,966.0471,-0.2425537109375,0.27484130859375,0.9180908203125,-24.292144775390625,19.36492919921875,29.189453125,8.422981665593783,7.936347900722409,6.210729799966622,5.036961590730277,0.0,0.0,0.0,0.0,0.0,0.0,0.0,0.0,0.0,0.0,0.0,0.0,95.49146,1,2.0,1.0,1.0,4.0,67.80
2025-09-03 19:52:22.758,0.0,0.487608,0.7858602,0.0,0.0,1.7931793E-4,-0.08431994,0.0,0.0,0.21666615,-0.0465588,0.0,0.0,0.128927,0.4354301,0.0,0.0,-0.18138663,0.20694478,0.0,584.85016,527.4095,706.4579,578.6547,699.99695,703.62573,696.6337,1095.178,-0.4942626953125,0.20489501953125,0.7906494140625,-11.4544677734375,-7.4468994140625,-20.02288818359375,8.496468063800872,8.011238108862027,6.277746465441194,5.101750470877143,0.0,0.0,0.0,0.0,0.0,0.0,0.0,0.0,0.0,0.0,0.0,0.0,93.36076,1,2.0,1.0,1.0,2.0,67.80
2025-09-03 19:52:23.009,,,,,,,,,,,,,,,,,,,,,,,,,,,,,,,,,,,,,,,,,,,,,,,,,,,,,,,,,,/muse/elements/blink
2025-09-03 19:52:23.519,,,,,,,,,,,,,,,,,,,,,,,,,,,,,,,,,,,,,,,,,,,,,,,,,,,,,,,,,,/muse/elements/blink
2025-09-03 19:52:23.763,0.0,0.487608,0.7858602,0.0,0.0,1.7931793E-4,-0.08431994,0.0,0.0,0.21666615,-0.0465588,0.0,0.0,0.128927,0.4354301,0.0,0.0,-0.18138663,0.20694478,0.0,43.722153,763.89856,726.1948,2.9207106,839.21747,855.0601,869.30963,1397.7812,-0.043701171875,-0.2454833984375,0.92425537109375,6.639404296875,-7.9254150390625,-0.1495361328125,8.498512743485206,7.993995660777722,6.287512099754428,5.08630856161934,0.0,0.0,0.0,0.0,0.0,0.0,0.0,0.0,0.0,0.0,0.0,0.0,89.05077,1,2.0,1.0,1.0,2.0,67.80
2025-09-03 19:52:24.555,,,,,,,,,,,,,,,,,,,,,,,,,,,,,,,,,,,,,,,,,,,,,,,,,,,,,,,,,,/muse/elements/blink
2025-09-03 19:52:24.771,0.0,0.487608,0.7858602,0.0,0.0,1.7931793E-4,-0.08431994,0.0,0.0,0.21666615,-0.0465588,0.0,0.0,0.128927,0.4354301,0.0,0.0,-0.18138663,0.20694478,0.0,112.58012,755.4019,704.5993,239.49826,699.1119,691.4118,695.57166,1261.216,0.24774169921875,-0.26141357421875,0.85601806640625,-6.183319091796875,-6.213226318359375,6.160888671875,8.497475144839425,8.001686097799395,6.289495744224304,5.1000109672650975,0.0,0.0,0.0,0.0,0.0,0.0,0.0,0.0,0.0,0.0,0.0,0.0,87.58907,1,4.0,1.0,1.0,4.0,67.76
2025-09-03 19:52:25.143,,,,,,,,,,,,,,,,,,,,,,,,,,,,,,,,,,,,,,,,,,,,,,,,,,,,,,,,,,/muse/elements/blink
2025-09-03 19:52:25.775,0.0,0.487608,0.7858602,0.0,0.0,1.7931793E-4,-0.08431994,0.0,0.0,0.21666615,-0.0465588,0.0,0.0,0.128927,0.4354301,0.0,0.0,-0.18138663,0.20694478,0.0,74.25685,752.3927,725.30975,496.34378,791.7781,816.0288,812.6656,1315.7358,0.2412109375,-0.266845703125,0.9095458984375,1.24114990234375,6.691741943359375,6.168365478515625,8.378059747752904,7.857826097322556,6.15250220537396,4.9573411534701854,0.0,0.0,0.0,0.0,0.0,0.0,0.0,0.0,0.0,0.0,0.0,0.0,88.588936,1,2.0,1.0,1.0,2.0,67.76
2025-09-03 19:52:26.778,0.0,1.3034422,0.7858602,0.0,0.0,0.5228956,-0.08431994,0.0,0.0,0.604952,-0.0465588,0.0,0.0,0.033990882,0.4354301,0.0,0.0,-0.35963565,0.20694478,0.0,675.03815,742.0375,738.93976,559.62585,709.2901,726.3718,742.65704,1309.4519,0.26251220703125,-0.33306884765625,0.907958984375,-2.684173583984375,2.086029052734375,-0.276641845703125,8.337990129461412,7.828315571132251,6.132757313496889,4.946873614190688,0.0,0.0,0.0,0.0,0.0,0.0,0.0,0.0,0.0,0.0,0.0,0.0,90.55248,1,2.0,1.0,1.0,2.0,67.76
2025-09-03 19:52:26.873,,,,,,,,,,,,,,,,,,,,,,,,,,,,,,,,,,,,,,,,,,,,,,,,,,,,,,,,,,/muse/elements/blink
2025-09-03 19:52:27.234,,,,,,,,,,,,,,,,,,,,,,,,,,,,,,,,,,,,,,,,,,,,,,,,,,,,,,,,,,/muse/elements/blink
2025-09-03 19:52:27.780,0.0,1.5592633,0.7858602,0.0,0.0,0.69478476,-0.08431994,0.0,0.0,0.6747867,-0.0465588,0.0,0.0,-0.17236805,0.4354301,0.0,0.0,-0.56955403,0.20694478,0.0,572.6363,694.5981,756.64105,562.281,587.2398,559.2718,565.9098,944.18604,0.26611328125,-0.32537841796875,0.90423583984375,-0.127105712890625,-0.73272705078125,2.19818115234375,8.197517583386977,7.705695825286699,5.965734449133348,4.816746536966836,0.0,0.0,0.0,0.0,0.0,0.0,0.0,0.0,0.0,0.0,0.0,0.0,92.7378,1,2.0,1.0,1.0,4.0,67.76
2025-09-03 19:52:28.759,,,,,,,,,,,,,,,,,,,,,,,,,,,,,,,,,,,,,,,,,,,,,,,,,,,,,,,,,,/muse/elements/blink
2025-09-03 19:52:28.791,0.0,1.7775395,0.7858602,0.0,0.0,0.74484456,-0.08431994,0.0,0.0,0.6747867,-0.0465588,0.0,0.0,-0.10346671,0.4354301,0.0,0.0,-0.51321703,0.20694478,0.0,659.284,745.1352,767.61584,624.324,770.094,787.5298,766.1112,1136.6874,0.2923583984375,-0.34039306640625,0.88531494140625,2.34771728515625,-1.30096435546875,0.2093505859375,8.205116467586963,7.729926805426412,5.99374961256944,4.851750232458336,0.0,0.0,0.0,0.0,0.0,0.0,0.0,0.0,0.0,0.0,0.0,0.0,94.035995,1,2.0,1.0,1.0,2.0,67.76
2025-09-03 19:52:29.009,,,,,,,,,,,,,,,,,,,,,,,,,,,,,,,,,,,,,,,,,,,,,,,,,,,,,,,,,,/muse/elements/blink
2025-09-03 19:52:29.627,,,,,,,,,,,,,,,,,,,,,,,,,,,,,,,,,,,,,,,,,,,,,,,,,,,,,,,,,,/muse/elements/blink
2025-09-03 19:52:29.792,0.0,1.7775395,0.7858602,0.0,0.0,0.74484456,-0.08431994,0.0,0.0,0.6747867,-0.0465588,0.0,0.0,-0.10346671,0.4354301,0.0,0.0,-0.51321703,0.20694478,0.0,1046.6764,519.7095,669.1082,911.26166,769.3859,779.7412,764.07556,1152.6185,0.172607421875,-0.274169921875,0.95458984375,-2.564544677734375,1.786956787109375,2.534637451171875,8.182716543880982,7.721320840187874,5.973333333333334,4.841740457287271,0.0,0.0,0.0,0.0,0.0,0.0,0.0,0.0,0.0,0.0,0.0,0.0,92.97396,1,2.0,1.0,1.0,2.0,67.73
2025-09-03 19:52:29.993,,,,,,,,,,,,,,,,,,,,,,,,,,,,,,,,,,,,,,,,,,,,,,,,,,,,,,,,,,/muse/elements/blink
2025-09-03 19:52:30.127,,,,,,,,,,,,,,,,,,,,,,,,,,,,,,,,,,,,,,,,,,,,,,,,,,,,,,,,,,/muse/elements/blink
2025-09-03 19:52:30.494,,,,,,,,,,,,,,,,,,,,,,,,,,,,,,,,,,,,,,,,,,,,,,,,,,,,,,,,,,/muse/elements/blink
2025-09-03 19:52:30.797,0.0,1.7775395,0.7858602,0.0,0.0,0.74484456,-0.08431994,0.0,0.0,0.6747867,-0.0465588,0.0,0.0,-0.10346671,0.4354301,0.0,0.0,-0.51321703,0.20694478,0.0,159.75401,795.4068,701.6786,264.19153,786.46765,778.2366,796.20337,1336.1808,0.1826171875,-0.32708740234375,0.8897705078125,13.338623046875,8.17962646484375,33.316650390625,8.27521541139165,7.7904432205612375,6.086004339222278,4.909245404477505,0.0,0.0,0.0,0.0,0.0,0.0,0.0,0.0,0.0,0.0,0.0,0.0,89.21029,1,2.0,1.0,1.0,4.0,67.73
2025-09-03 19:52:31.243,,,,,,,,,,,,,,,,,,,,,,,,,,,,,,,,,,,,,,,,,,,,,,,,,,,,,,,,,,/muse/elements/blink
2025-09-03 19:52:31.643,,,,,,,,,,,,,,,,,,,,,,,,,,,,,,,,,,,,,,,,,,,,,,,,,,,,,,,,,,/muse/elements/jaw_clench
2025-09-03 19:52:31.810,0.0,1.7775395,0.7858602,0.0,0.0,0.74484456,-0.08431994,0.0,0.0,0.6747867,-0.0465588,0.0,0.0,-0.10346671,0.4354301,0.0,0.0,-0.51321703,0.20694478,0.0,1421.324,856.56476,938.3446,768.41235,779.21014,776.732,789.12286,1224.5742,0.2279052734375,-0.11260986328125,1.01885986328125,1.854248046875,-19.97802734375,-4.62066650390625,8.377357842786639,7.931465083565792,6.172918484610066,5.007512099754429,0.0,0.0,0.0,0.0,0.0,0.0,0.0,0.0,0.0,0.0,0.0,0.0,87.110374,1,2.0,1.0,1.0,2.0,67.73
2025-09-03 19:52:31.876,,,,,,,,,,,,,,,,,,,,,,,,,,,,,,,,,,,,,,,,,,,,,,,,,,,,,,,,,,/muse/elements/blink
2025-09-03 19:52:32.818,0.0,1.7775395,0.7858602,0.0,0.0,0.74484456,-0.08431994,0.0,0.0,0.6747867,-0.0465588,0.0,0.0,-0.10346671,0.4354301,0.0,0.0,-0.51321703,0.20694478,0.0,793.6367,772.30664,760.71234,645.83105,789.47687,795.1413,796.55743,1355.6522,0.531005859375,-0.18865966796875,0.89306640625,3.94775390625,25.637969970703125,1.547698974609375,8.356056552940895,7.885383496650216,6.152776863839019,4.960911713515962,0.0,0.0,0.0,0.0,0.0,0.0,0.0,0.0,0.0,0.0,0.0,0.0,86.82542,1,2.0,1.0,1.0,2.0,67.73
2025-09-03 19:52:33.120,,,,,,,,,,,,,,,,,,,,,,,,,,,,,,,,,,,,,,,,,,,,,,,,,,,,,,,,,,/muse/elements/blink
2025-09-03 19:52:33.752,,,,,,,,,,,,,,,,,,,,,,,,,,,,,,,,,,,,,,,,,,,,,,,,,,,,,,,,,,/muse/elements/blink
2025-09-03 19:52:33.818,0.0,1.7775395,0.7858602,0.0,0.0,0.74484456,-0.08431994,0.0,0.0,0.6747867,-0.0465588,0.0,0.0,-0.10346671,0.4354301,0.0,0.0,-0.51321703,0.20694478,0.0,481.82874,733.8064,774.2538,999.1485,836.47375,861.5211,889.1351,1415.217,0.0770263671875,0.0408935546875,1.0272216796875,-1.114044189453125,-0.35888671875,34.6026611328125,8.421577855661255,7.963539088763322,6.245031590491858,5.05051140833989,0.0,0.0,0.0,0.0,0.0,0.0,0.0,0.0,0.0,0.0,0.0,0.0,87.85247,1,2.0,1.0,1.0,2.0,67.73
2025-09-03 19:52:34.351,,,,,,,,,,,,,,,,,,,,,,,,,,,,,,,,,,,,,,,,,,,,,,,,,,,,,,,,,,/muse/elements/blink
2025-09-03 19:52:34.488,,,,,,,,,,,,,,,,,,,,,,,,,,,,,,,,,,,,,,,,,,,,,,,,,,,,,,,,,,/muse/elements/blink
2025-09-03 19:52:34.822,0.0,1.7775395,0.7858602,0.0,0.0,0.74484456,-0.08431994,0.0,0.0,0.6747867,-0.0465588,0.0,0.0,-0.10346671,0.4354301,0.0,0.0,-0.51321703,0.20694478,0.0,456.16187,839.30597,751.6847,422.0869,729.6466,719.5569,746.46277,1254.6664,-0.085693359375,0.5831298828125,0.83062744140625,32.9876708984375,-44.18792724609375,-161.90277099609375,8.43482249719858,7.993385308633145,6.251867534511122,5.076054645590444,0.0,0.0,0.0,0.0,0.0,0.0,0.0,0.0,0.0,0.0,0.0,0.0,88.28768,1,4.0,2.0,1.0,2.0,67.73
2025-09-03 19:52:35.252,,,,,,,,,,,,,,,,,,,,,,,,,,,,,,,,,,,,,,,,,,,,,,,,,,,,,,,,,,/muse/elements/blink
2025-09-03 19:52:35.831,0.0,1.7775395,0.7858602,0.0,0.0,0.74484456,-0.08431994,0.0,0.0,0.6747867,-0.0465588,0.0,0.0,-0.10346671,0.4354301,0.0,0.0,-0.51321703,0.20694478,0.0,468.9953,776.555,718.5833,611.8446,508.2036,483.51035,524.93134,749.73755,0.141845703125,-0.2525634765625,0.94976806640625,-4.56085205078125,5.72723388671875,3.93280029296875,8.349434232172234,7.883003123286365,6.153448251198054,4.972691509906301,0.0,0.0,0.0,0.0,0.0,0.0,0.0,0.0,0.0,0.0,0.0,0.0,88.06503,1,2.0,1.0,1.0,2.0,67.72
2025-09-03 19:52:36.000,,,,,,,,,,,,,,,,,,,,,,,,,,,,,,,,,,,,,,,,,,,,,,,,,,,,,,,,,,/muse/elements/blink
2025-09-03 19:52:36.361,,,,,,,,,,,,,,,,,,,,,,,,,,,,,,,,,,,,,,,,,,,,,,,,,,,,,,,,,,/muse/elements/blink
2025-09-03 19:52:36.844,0.0,1.3229684,0.7858602,0.0,0.0,0.47146198,-0.08431994,0.0,0.0,0.42028725,-0.0465588,0.0,0.0,0.2923909,0.4354301,0.0,0.0,-0.19519585,0.20694478,0.0,858.9544,644.769,704.06824,1450.0,798.5931,769.0319,774.2538,1345.0315,0.11083984375,-0.31304931640625,0.9366455078125,2.5421142578125,0.58319091796875,0.605621337890625,8.185859857425553,7.756538158929977,5.97983358367308,4.864811768352288,0.0,0.0,0.0,0.0,0.0,0.0,0.0,0.0,0.0,0.0,0.0,0.0,88.462715,1,2.0,1.0,1.0,2.0,67.72
2025-09-03 19:52:36.877,,,,,,,,,,,,,,,,,,,,,,,,,,,,,,,,,,,,,,,,,,,,,,,,,,,,,,,,,,/muse/elements/blink
2025-09-03 19:52:37.494,,,,,,,,,,,,,,,,,,,,,,,,,,,,,,,,,,,,,,,,,,,,,,,,,,,,,,,,,,/muse/elements/blink
2025-09-03 19:52:37.743,,,,,,,,,,,,,,,,,,,,,,,,,,,,,,,,,,,,,,,,,,,,,,,,,,,,,,,,,,/muse/elements/blink
2025-09-03 19:52:37.847,0.0,1.3457369,0.7858602,0.0,0.0,0.4353427,-0.08431994,0.0,0.0,0.37683955,-0.0465588,0.0,0.0,0.27987596,0.4354301,0.0,0.0,-0.19422723,0.20694478,0.0,1226.0789,463.5964,538.3843,922.32495,514.31055,493.68857,515.2841,690.2612,0.1033935546875,-0.26336669921875,0.949951171875,4.568328857421875,1.951446533203125,-1.697235107421875,7.971321078606681,7.598456953484491,5.728734711394035,4.703587249362229,0.0,0.0,0.0,0.0,0.0,0.0,0.0,0.0,0.0,0.0,0.0,0.0,88.462715,1,2.0,1.0,1.0,2.0,67.72
2025-09-03 19:52:38.245,,,,,,,,,,,,,,,,,,,,,,,,,,,,,,,,,,,,,,,,,,,,,,,,,,,,,,,,,,/muse/elements/blink
2025-09-03 19:52:38.861,0.0,1.3457369,0.7858602,0.0,0.0,0.4353427,-0.08431994,0.0,0.0,0.37683955,-0.0465588,0.0,0.0,0.27987596,0.4354301,0.0,0.0,-0.19422723,0.20694478,0.0,203.21065,810.89545,731.77075,2.832204,850.98883,876.30164,860.282,1450.0,0.09429931640625,-0.27862548828125,0.97662353515625,0.7177734375,-1.495361328125,1.637420654296875,7.939948978375414,7.594123453257993,5.700658512743485,4.7086531721622205,0.0,0.0,0.0,0.0,0.0,0.0,0.0,0.0,0.0,0.0,0.0,0.0,91.53065,1,2.0,1.0,1.0,2.0,67.72
2025-09-03 19:52:39.876,0.0,1.3457369,0.7858602,0.0,0.0,0.4353427,-0.08431994,0.0,0.0,0.37683955,-0.0465588,0.0,0.0,0.27987596,0.4354301,0.0,0.0,-0.19422723,0.20694478,0.0,677.78186,585.46967,678.84393,605.0296,782.13086,781.51135,785.0516,1344.9429,0.08441162109375,-0.26947021484375,0.9627685546875,0.396270751953125,1.263580322265625,-0.500946044921875,7.9537429368428585,7.6195446200796315,5.72083065112176,4.738133180745297,0.0,0.0,0.0,0.0,0.0,0.0,0.0,0.0,0.0,0.0,0.0,0.0,92.22791,1,2.0,1.0,1.0,2.0,67.72
2025-09-03 19:52:39.978,,,,,,,,,,,,,,,,,,,,,,,,,,,,,,,,,,,,,,,,,,,,,,,,,,,,,,,,,,/muse/elements/blink
2025-09-03 19:52:40.311,,,,,,,,,,,,,,,,,,,,,,,,,,,,,,,,,,,,,,,,,,,,,,,,,,,,,,,,,,/muse/elements/blink
2025-09-03 19:52:40.878,0.0,1.3457369,0.7858602,0.0,0.0,0.4353427,-0.08431994,0.0,0.0,0.37683955,-0.0465588,0.0,0.0,0.27987596,0.4354301,0.0,0.0,-0.19422723,0.20694478,0.0,359.24738,784.7861,733.45233,371.9038,840.19104,852.0509,856.4762,1450.0,0.07623291015625,-0.25714111328125,0.94207763671875,0.95703125,1.143951416015625,1.727142333984375,7.8819655246405835,7.568427627971294,5.629003170970126,4.6851851322032285,0.0,0.0,0.0,0.0,0.0,0.0,0.0,0.0,0.0,0.0,0.0,0.0,88.476814,1,2.0,1.0,1.0,2.0,67.71
2025-09-03 19:52:41.245,,,,,,,,,,,,,,,,,,,,,,,,,,,,,,,,,,,,,,,,,,,,,,,,,,,,,,,,,,/muse/elements/blink
2025-09-03 19:52:41.711,,,,,,,,,,,,,,,,,,,,,,,,,,,,,,,,,,,,,,,,,,,,,,,,,,,,,,,,,,/muse/elements/blink
2025-09-03 19:52:41.881,0.0,1.3457369,0.7858602,0.0,0.0,0.4353427,-0.08431994,0.0,0.0,0.37683955,-0.0465588,0.0,0.0,0.27987596,0.4354301,0.0,0.0,-0.19422723,0.20694478,0.0,1450.0,609.80896,594.4973,1449.823,826.5611,832.22546,827.8887,1450.0,0.064697265625,-0.25335693359375,0.9769287109375,0.366363525390625,0.7177734375,-7.723541259765625,7.933418210428439,7.611732112629044,5.695806213194096,4.738255251174213,0.0,0.0,0.0,0.0,0.0,0.0,0.0,0.0,0.0,0.0,0.0,0.0,84.485146,1,2.0,1.0,1.0,2.0,67.71
2025-09-03 19:52:42.744,,,,,,,,,,,,,,,,,,,,,,,,,,,,,,,,,,,,,,,,,,,,,,,,,,,,,,,,,,/muse/elements/blink
2025-09-03 19:52:42.894,0.0,1.3457369,0.7858602,0.0,0.0,0.4353427,-0.08431994,0.0,0.0,0.37683955,-0.0465588,0.0,0.0,0.27987596,0.4354301,0.0,0.0,-0.19422723,0.20694478,0.0,203.38766,788.68036,780.8918,396.59708,813.90466,830.1898,822.22424,1450.0,0.05169677734375,-0.082275390625,0.94915771484375,16.55364990234375,8.95721435546875,35.29052734375,7.98844145626207,7.6562267839687195,5.762975466704813,4.785954271272918,0.0,0.0,0.0,0.0,0.0,0.0,0.0,0.0,0.0,0.0,0.0,0.0,81.41843,1,2.0,1.0,1.0,2.0,67.71
2025-09-03 19:52:43.728,,,,,,,,,,,,,,,,,,,,,,,,,,,,,,,,,,,,,,,,,,,,,,,,,,,,,,,,,,/muse/elements/blink
2025-09-03 19:52:43.898,0.0,1.3457369,0.7858602,0.0,0.0,0.4353427,-0.08431994,0.0,0.0,0.37683955,-0.0465588,0.0,0.0,0.27987596,0.4354301,0.0,0.0,-0.19422723,0.20694478,0.0,165.50693,813.1966,765.49164,375.8866,822.6668,836.6508,821.78174,1450.0,0.03216552734375,-0.16949462890625,0.96905517578125,-3.93280029296875,-0.097198486328125,6.35528564453125,7.946174570250101,7.608558281477243,5.70615168204468,4.733677610089884,0.0,0.0,0.0,0.0,0.0,0.0,0.0,0.0,0.0,0.0,0.0,0.0,79.448044,1,2.0,1.0,1.0,2.0,67.71
2025-09-03 19:52:44.578,,,,,,,,,,,,,,,,,,,,,,,,,,,,,,,,,,,,,,,,,,,,,,,,,,,,,,,,,,/muse/elements/blink
2025-09-03 19:52:44.912,0.0,1.6208657,1.3347089,0.0,0.0,1.403829,0.9063146,0.0,0.0,1.1242017,0.98013186,0.0,0.0,0.63137645,0.5153462,0.0,0.0,-0.12571034,0.050340477,0.0,477.4034,745.2237,742.126,661.6737,529.9762,520.329,590.8686,880.9925,-0.01580810546875,-0.16986083984375,0.92633056640625,-1.27105712890625,5.09918212890625,-5.81695556640625,8.012428295543952,7.662025129342203,5.791417876642109,4.796238704909043,0.0,0.0,0.0,0.0,0.0,0.0,0.0,0.0,0.0,0.0,0.0,0.0,79.142555,1,2.0,1.0,1.0,2.0,67.71
2025-09-03 19:52:45.211,,,,,,,,,,,,,,,,,,,,,,,,,,,,,,,,,,,,,,,,,,,,,,,,,,,,,,,,,,/muse/elements/blink
2025-09-03 19:52:45.795,,,,,,,,,,,,,,,,,,,,,,,,,,,,,,,,,,,,,,,,,,,,,,,,,,,,,,,,,,/muse/elements/blink
2025-09-03 19:52:45.915,0.0,0.7559249,1.2401675,0.0,0.0,0.44636205,0.7741549,0.0,0.0,0.61421084,0.9469597,0.0,0.0,0.56005967,0.505974,0.0,0.0,0.03523289,0.111811526,0.0,742.83405,758.1456,766.1112,704.42224,826.8266,822.31274,824.79095,1450.0,0.0738525390625,-0.31793212890625,1.09423828125,49.39178466796875,-26.00433349609375,-202.06069946289062,8.072700569820947,7.733894094366164,5.8543146651407865,4.848118637198102,0.0,0.0,0.0,0.0,0.0,0.0,0.0,0.0,0.0,0.0,0.0,0.0,79.62813,1,2.0,1.0,1.0,2.0,67.69
2025-09-03 19:52:46.611,,,,,,,,,,,,,,,,,,,,,,,,,,,,,,,,,,,,,,,,,,,,,,,,,,,,,,,,,,/muse/elements/blink
2025-09-03 19:52:46.927,0.0,0.73064154,1.1922314,0.0,0.0,0.45288473,0.7641439,0.0,0.0,0.5173005,0.8456959,0.0,0.0,0.5706292,0.5157574,0.0,0.0,0.04053427,0.20996796,0.0,714.24646,768.5894,697.25323,622.9079,830.2783,847.00604,830.6324,1450.0,-0.0975341796875,-0.14288330078125,0.95965576171875,-3.90289306640625,1.846771240234375,-7.29736328125,8.03253939870777,7.672736809479532,5.8162592089264,4.81155854373793,0.0,0.0,0.0,0.0,0.0,0.0,0.0,0.0,0.0,0.0,0.0,0.0,81.21113,1,2.0,1.0,1.0,2.0,67.69
2025-09-03 19:52:47.928,0.0,0.73064154,1.1922314,0.0,0.0,0.45288473,0.7641439,0.0,0.0,0.5173005,0.8456959,0.0,0.0,0.5706292,0.5157574,0.0,0.0,0.04053427,0.20996796,0.0,654.06213,835.85425,740.7099,617.4205,532.10034,514.22205,575.6455,839.3945,0.03533935546875,-0.0860595703125,1.02398681640625,-3.27484130859375,-21.42852783203125,-2.669219970703125,7.951942398016356,7.600928879670028,5.71790096082779,4.734135374198317,0.0,0.0,0.0,0.0,0.0,0.0,0.0,0.0,0.0,0.0,0.0,0.0,83.39572,1,2.0,1.0,1.0,2.0,67.69
2025-09-03 19:52:48.932,0.0,0.73064154,1.1922314,0.0,0.0,0.45288473,0.7641439,0.0,0.0,0.5173005,0.8456959,0.0,0.0,0.5706292,0.5157574,0.0,0.0,0.04053427,0.20996796,0.0,889.66614,753.10077,739.7363,670.96686,811.07245,823.5519,814.34717,1450.0,0.01910400390625,-0.03790283203125,0.98095703125,5.480499267578125,1.68975830078125,6.721649169921875,7.939308108623608,7.594703287795341,5.711003981594068,4.7303511909019385,0.0,0.0,0.0,0.0,0.0,0.0,0.0,0.0,0.0,0.0,0.0,0.0,85.784904,1,2.0,1.0,1.0,2.0,67.69
2025-09-03 19:52:49.597,,,,,,,,,,,,,,,,,,,,,,,,,,,,,,,,,,,,,,,,,,,,,,,,,,,,,,,,,,/muse/elements/blink
2025-09-03 19:52:49.712,,,,,,,,,,,,,,,,,,,,,,,,,,,,,,,,,,,,,,,,,,,,,,,,,,,,,,,,,,/muse/elements/jaw_clench
2025-09-03 19:52:49.944,0.0,1.5225221,1.0790092,0.0,0.0,0.7788567,1.0900052,0.0,0.0,1.0050173,0.9659248,0.0,0.0,0.20750575,0.5609038,0.0,0.0,-0.24536213,0.19030909,0.0,783.8125,749.0295,914.89044,663.4438,821.4277,838.0669,821.69324,1450.0,-0.02777099609375,-0.08892822265625,1.1483154296875,3.386993408203125,4.538421630859375,41.31683349609375,7.925544667763393,7.617866151682045,5.676671673461603,4.714207376677872,0.0,0.0,0.0,0.0,0.0,0.0,0.0,0.0,0.0,0.0,0.0,0.0,89.87794,1,2.0,1.0,1.0,2.0,67.69
2025-09-03 19:52:49.996,,,,,,,,,,,,,,,,,,,,,,,,,,,,,,,,,,,,,,,,,,,,,,,,,,,,,,,,,,/muse/elements/jaw_clench
2025-09-03 19:52:50.097,,,,,,,,,,,,,,,,,,,,,,,,,,,,,,,,,,,,,,,,,,,,,,,,,,,,,,,,,,/muse/elements/blink
2025-09-03 19:52:50.579,,,,,,,,,,,,,,,,,,,,,,,,,,,,,,,,,,,,,,,,,,,,,,,,,,,,,,,,,,/muse/elements/blink
2025-09-03 19:52:50.946,0.0,1.5225221,1.1624246,0.0,0.0,0.7788567,0.8416241,0.0,0.0,1.0050173,0.6871645,0.0,0.0,0.20750575,0.4032218,0.0,0.0,-0.24536213,0.19194674,0.0,643.26434,764.6066,765.31464,696.6337,1036.8522,1106.4182,992.86456,1450.0,-0.0836181640625,-0.0938720703125,1.00189208984375,-1.114044189453125,13.20404052734375,5.5328369140625,7.942573492597096,7.639594688028992,5.708348949765157,4.7550399351500845,0.0,0.0,0.0,0.0,0.0,0.0,0.0,0.0,0.0,0.0,0.0,0.0,90.96207,1,2.0,1.0,1.0,2.0,67.69
2025-09-03 19:52:50.978,,,,,,,,,,,,,,,,,,,,,,,,,,,,,,,,,,,,,,,,,,,,,,,,,,,,,,,,,,/muse/elements/blink
2025-09-03 19:52:51.479,,,,,,,,,,,,,,,,,,,,,,,,,,,,,,,,,,,,,,,,,,,,,,,,,,,,,,,,,,/muse/elements/blink
2025-09-03 19:52:51.949,0.0,1.5225221,1.1624246,0.0,0.0,0.7788567,0.8416241,0.0,0.0,1.0050173,0.6871645,0.0,0.0,0.20750575,0.4032218,0.0,0.0,-0.24536213,0.19194674,0.0,1071.4583,735.93054,696.7222,641.84827,803.0184,797.9735,773.1032,1450.0,-0.28265380859375,-0.02496337890625,0.9254150390625,4.687957763671875,-12.538604736328125,-7.67120361328125,7.9743728393295665,7.655250220537396,5.74811339198436,4.7794845385404,0.0,0.0,0.0,0.0,0.0,0.0,0.0,0.0,0.0,0.0,0.0,0.0,87.89408,1,2.0,1.0,1.0,2.0,67.68
2025-09-03 19:52:52.112,,,,,,,,,,,,,,,,,,,,,,,,,,,,,,,,,,,,,,,,,,,,,,,,,,,,,,,,,,/muse/elements/blink
2025-09-03 19:52:52.745,,,,,,,,,,,,,,,,,,,,,,,,,,,,,,,,,,,,,,,,,,,,,,,,,,,,,,,,,,/muse/elements/blink
2025-09-03 19:52:52.961,0.0,1.5225221,1.1624246,0.0,0.0,0.7788567,0.8416241,0.0,0.0,1.0050173,0.6871645,0.0,0.0,0.20750575,0.4032218,0.0,0.0,-0.24536213,0.19194674,0.0,1165.8945,574.76044,687.6946,674.59564,783.901,805.3195,795.3183,1450.0,-0.20794677734375,-0.00921630859375,0.966064453125,-1.55517578125,1.143951416015625,3.21502685546875,8.01435090479937,7.6833874544024034,5.796972081157762,4.81555635028491,0.0,0.0,0.0,0.0,0.0,0.0,0.0,0.0,0.0,0.0,0.0,0.0,85.884476,1,2.0,1.0,1.0,4.0,67.68
2025-09-03 19:52:53.112,,,,,,,,,,,,,,,,,,,,,,,,,,,,,,,,,,,,,,,,,,,,,,,,,,,,,,,,,,/muse/elements/blink
2025-09-03 19:52:53.462,,,,,,,,,,,,,,,,,,,,,,,,,,,,,,,,,,,,,,,,,,,,,,,,,,,,,,,,,,/muse/elements/blink
2025-09-03 19:52:53.809,,,,,,,,,,,,,,,,,,,,,,,,,,,,,,,,,,,,,,,,,,,,,,,,,,,,,,,,,,/muse/elements/blink
2025-09-03 19:52:53.972,0.0,1.5225221,1.1624246,0.0,0.0,0.7788567,0.8416241,0.0,0.0,1.0050173,0.6871645,0.0,0.0,0.20750575,0.4032218,0.0,0.0,-0.24536213,0.19194674,0.0,514.39905,718.6718,830.8979,371.63828,767.88135,783.9895,778.3251,1449.292,-0.2071533203125,-0.0264892578125,0.97235107421875,-0.770111083984375,4.269256591796875,6.6094970703125,7.934486326681449,7.60782585890375,5.69864435066638,4.730961543046515,0.0,0.0,0.0,0.0,0.0,0.0,0.0,0.0,0.0,0.0,0.0,0.0,86.90416,1,2.0,1.0,1.0,2.0,67.68
2025-09-03 19:52:54.337,,,,,,,,,,,,,,,,,,,,,,,,,,,,,,,,,,,,,,,,,,,,,,,,,,,,,,,,,,/muse/elements/blink
2025-09-03 19:52:54.704,,,,,,,,,,,,,,,,,,,,,,,,,,,,,,,,,,,,,,,,,,,,,,,,,,,,,,,,,,/muse/elements/blink
2025-09-03 19:52:54.973,0.0,1.5225221,1.1624246,0.0,0.0,0.7788567,0.8416241,0.0,0.0,1.0050173,0.6871645,0.0,0.0,0.20750575,0.4032218,0.0,0.0,-0.24536213,0.19194674,0.0,327.11957,645.3885,690.34973,104.88006,760.0043,764.6066,779.29865,1442.0344,-0.212646484375,0.123291015625,1.02978515625,9.144134521484375,24.53887939453125,9.353485107421875,8.020881672746347,7.6682202036096605,5.807042891543285,4.793339532222301,0.0,0.0,0.0,0.0,0.0,0.0,0.0,0.0,0.0,0.0,0.0,0.0,89.32767,1,2.0,1.0,1.0,2.0,67.68
2025-09-03 19:52:55.338,,,,,,,,,,,,,,,,,,,,,,,,,,,,,,,,,,,,,,,,,,,,,,,,,,,,,,,,,,/muse/elements/blink
2025-09-03 19:52:55.738,,,,,,,,,,,,,,,,,,,,,,,,,,,,,,,,,,,,,,,,,,,,,,,,,,,,,,,,,,/muse/elements/blink
2025-09-03 19:52:55.987,0.0,1.5225221,1.1624246,0.0,0.0,0.7788567,0.8416241,0.0,0.0,1.0050173,0.6871645,0.0,0.0,0.20750575,0.4032218,0.0,0.0,-0.24536213,0.19194674,0.0,412.79376,636.27234,865.6809,539.09235,766.3767,772.48364,765.22614,1431.7677,-0.011474609375,-0.25384521484375,1.08184814453125,-10.071258544921875,-28.628692626953125,-63.171539306640625,7.977760293731969,7.624549507665165,5.7518365400662805,4.752232315285029,0.0,0.0,0.0,0.0,0.0,0.0,0.0,0.0,0.0,0.0,0.0,0.0,93.388596,1,2.0,1.0,4.0,2.0,67.68
2025-09-03 19:52:56.005,,,,,,,,,,,,,,,,,,,,,,,,,,,,,,,,,,,,,,,,,,,,,,,,,,,,,,,,,,/muse/elements/blink
2025-09-03 19:52:56.207,,,,,,,,,,,,,,,,,,,,,,,,,,,,,,,,,,,,,,,,,,,,,,,,,,,,,,,,,,/muse/elements/blink
2025-09-03 19:52:56.987,0.0,1.5225221,1.1624246,0.0,0.0,0.7788567,0.8416241,0.0,0.0,1.0050173,0.6871645,0.0,0.0,0.20750575,0.4032218,0.0,0.0,-0.24536213,0.19194674,0.0,639.6356,848.5107,763.279,443.948,578.21216,573.52136,601.7549,721.85803,0.1392822265625,-0.14056396484375,0.98291015625,-2.639312744140625,-9.04693603515625,0.2392578125,7.982154829172925,7.635230670195265,5.7640130653505945,4.768833893617528,0.0,0.0,0.0,0.0,0.0,0.0,0.0,0.0,0.0,0.0,0.0,0.0,94.36018,1,2.0,1.0,4.0,2.0,67.68
2025-09-03 19:52:57.554,,,,,,,,,,,,,,,,,,,,,,,,,,,,,,,,,,,,,,,,,,,,,,,,,,,,,,,,,,/muse/elements/blink
2025-09-03 19:52:57.992,0.0,1.5225221,1.1624246,0.0,0.0,0.7788567,0.8416241,0.0,0.0,1.0050173,0.6871645,0.0,0.0,0.20750575,0.4032218,0.0,0.0,-0.24536213,0.19194674,0.0,683.2692,804.9655,721.32697,494.1311,773.8113,794.0792,774.51935,1368.9281,0.02825927734375,-0.221435546875,0.958984375,2.40753173828125,12.344207763671875,-1.48040771484375,7.886329542474311,7.5602794268411895,5.650853777745988,4.693882650263453,0.0,0.0,0.0,0.0,0.0,0.0,0.0,0.0,0.0,0.0,0.0,0.0,90.79703,1,2.0,1.0,1.0,2.0,67.66
2025-09-03 19:52:59.004,0.0,1.0571116,1.1906453,0.0,0.0,0.39208823,0.97968864,0.0,0.0,0.72129434,0.7423891,0.0,0.0,0.3625425,0.4009175,0.0,0.0,-0.24668445,-0.26168412,0.0,778.3251,797.26544,770.0055,605.6492,767.4388,772.39514,767.1733,1381.4076,-0.05255126953125,-0.19244384765625,0.97247314453125,1.48040771484375,4.844970703125,6.975860595703125,7.889625444055027,7.570716448513458,5.661809598741149,4.707524020694752,0.0,0.0,0.0,0.0,0.0,0.0,0.0,0.0,0.0,0.0,0.0,0.0,87.73849,1,2.0,1.0,1.0,2.0,67.66
2025-09-03 19:52:59.955,,,,,,,,,,,,,,,,,,,,,,,,,,,,,,,,,,,,,,,,,,,,,,,,,,,,,,,,,,/muse/elements/blink
2025-09-03 19:53:00.005,0.0,0.974058,1.1445994,0.0,0.0,0.22658028,0.58514756,0.0,0.0,0.7436865,0.7194527,0.0,0.0,0.3545293,0.41549453,0.0,0.0,-0.17959777,-0.14646326,0.0,899.1363,817.0024,721.76953,709.64417,757.34906,764.07556,732.30176,1450.0,-0.17852783203125,0.15948486328125,0.87957763671875,27.297821044921875,13.540496826171875,68.62213134765625,7.973701451970531,7.641486779677181,5.76386047731445,4.775639320029564,0.0,0.0,0.0,0.0,0.0,0.0,0.0,0.0,0.0,0.0,0.0,0.0,88.05642,1,2.0,1.0,1.0,2.0,67.66
2025-09-03 19:53:00.688,,,,,,,,,,,,,,,,,,,,,,,,,,,,,,,,,,,,,,,,,,,,,,,,,,,,,,,,,,/muse/elements/blink
2025-09-03 19:53:01.005,0.0,0.6537108,1.1902058,0.0,0.0,0.2427217,0.7645891,0.0,0.0,0.31374964,0.2440997,0.0,0.0,0.21850386,0.30515108,0.0,0.0,-0.18500482,-0.15580529,0.0,758.9422,766.4652,752.4812,550.42114,778.76764,790.27344,769.2089,1363.9718,-0.2359619140625,-0.38104248046875,0.939697265625,-11.4544677734375,6.34033203125,-16.800384521484375,7.9521560212669575,7.617805116467587,5.73126767279403,4.748936413704313,0.0,0.0,0.0,0.0,0.0,0.0,0.0,0.0,0.0,0.0,0.0,0.0,87.60535,1,2.0,1.0,1.0,2.0,67.66
2025-09-03 19:53:01.305,,,,,,,,,,,,,,,,,,,,,,,,,,,,,,,,,,,,,,,,,,,,,,,,,,,,,,,,,,/muse/elements/blink
2025-09-03 19:53:01.705,,,,,,,,,,,,,,,,,,,,,,,,,,,,,,,,,,,,,,,,,,,,,,,,,,,,,,,,,,/muse/elements/blink
2025-09-03 19:53:02.007,0.0,0.73772866,1.1902058,0.0,0.0,0.26743668,0.7645891,0.0,0.0,0.2361657,0.2440997,0.0,0.0,0.23686099,0.30515108,0.0,0.0,-0.18586926,-0.15580529,0.0,767.4388,771.4216,739.38226,574.4949,746.72833,755.0479,734.3374,1252.9847,0.0582275390625,-0.27593994140625,0.94647216796875,-0.37384033203125,0.79254150390625,5.659942626953125,8.011116038433112,7.667548816250626,5.806585127434852,4.8134201177788905,0.0,0.0,0.0,0.0,0.0,0.0,0.0,0.0,0.0,0.0,0.0,0.0,85.93213,1,2.0,1.0,1.0,2.0,67.66
2025-09-03 19:53:02.973,,,,,,,,,,,,,,,,,,,,,,,,,,,,,,,,,,,,,,,,,,,,,,,,,,,,,,,,,,/muse/elements/blink
2025-09-03 19:53:03.009,0.0,0.43212667,1.1902058,0.0,0.0,0.05595512,0.7645891,0.0,0.0,0.3895171,0.2440997,0.0,0.0,0.08917869,0.30515108,0.0,0.0,-0.25988576,-0.15580529,0.0,726.8144,761.42035,757.6146,754.5169,873.8235,903.2961,906.0398,1410.2606,-0.0987548828125,0.182861328125,0.9783935546875,16.277008056640625,9.174041748046875,-3.117828369140625,7.9234084352573735,7.5944896645447395,5.701146794459147,4.7308394726176,0.0,0.0,0.0,0.0,0.0,0.0,0.0,0.0,0.0,0.0,0.0,0.0,84.81806,1,2.0,1.0,1.0,2.0,67.65
2025-09-03 19:53:04.022,0.0,0.71443176,0.9630711,0.0,0.0,0.45033395,0.6043232,0.0,0.0,0.5128507,0.808299,0.0,0.0,0.08279895,0.2061127,0.0,0.0,-0.1974807,-0.21806031,0.0,759.8273,750.18005,746.55133,819.6576,723.7167,725.5753,703.27167,1375.1237,-0.05706787109375,0.4847412109375,0.8934326171875,-0.500946044921875,-0.381317138671875,1.398162841796875,7.925025868440502,7.592292396824261,5.704473213647092,4.731938106477839,0.0,0.0,0.0,0.0,0.0,0.0,0.0,0.0,0.0,0.0,0.0,0.0,86.62963,1,2.0,1.0,1.0,2.0,67.65
2025-09-03 19:53:05.023,0.0,1.3190813,1.0407615,0.0,0.0,0.29759964,0.78246886,0.0,0.0,0.5363956,0.8375383,0.0,0.0,0.06784599,0.33768675,0.0,0.0,-0.2909736,-0.13516301,0.0,997.20135,825.7645,742.48,721.85803,758.5882,758.9422,755.2249,1267.6769,-0.04095458984375,-0.168701171875,0.9967041015625,-32.531585693359375,-17.323760986328125,-14.542388916015625,7.842964022602103,7.525947118708724,5.598546598955726,4.652439739646663,0.0,0.0,0.0,0.0,0.0,0.0,0.0,0.0,0.0,0.0,0.0,0.0,88.06618,1,2.0,1.0,1.0,2.0,67.65
2025-09-03 19:53:05.439,,,,,,,,,,,,,,,,,,,,,,,,,,,,,,,,,,,,,,,,,,,,,,,,,,,,,,,,,,/muse/elements/blink
2025-09-03 19:53:06.023,0.0,1.3618122,0.56136394,0.0,0.0,0.38565075,0.58754,0.0,0.0,0.5931658,0.3237915,0.0,0.0,0.19910273,0.23836896,0.0,0.0,-0.26561096,-0.27553922,0.0,613.96875,760.2698,732.6558,606.71124,685.65894,655.2127,637.5115,1350.9613,0.0301513671875,-0.31329345703125,1.057861328125,6.990814208984375,-11.656341552734375,19.1705322265625,7.891212359630928,7.570716448513458,5.655034689936342,4.697575280738144,0.0,0.0,0.0,0.0,0.0,0.0,0.0,0.0,0.0,0.0,0.0,0.0,90.666145,1,2.0,1.0,1.0,2.0,67.65
2025-09-03 19:53:06.306,,,,,,,,,,,,,,,,,,,,,,,,,,,,,,,,,,,,,,,,,,,,,,,,,,,,,,,,,,/muse/elements/blink
2025-09-03 19:53:07.026,0.0,1.3946465,0.90058607,0.0,0.0,0.41988865,0.32224557,0.0,0.0,0.59141356,0.55422676,0.0,0.0,0.21726358,0.1690232,0.0,0.0,-0.22331457,-0.22210452,0.0,1000.1221,678.13586,766.2882,1204.6603,511.21283,451.0285,429.964,822.9323,-0.3951416015625,0.44805908203125,0.91009521484375,8.605804443359375,8.97216796875,4.523468017578125,7.896003623965859,7.577186181245977,5.64465870347853,4.690647783897194,0.0,0.0,0.0,0.0,0.0,0.0,0.0,0.0,0.0,0.0,0.0,0.0,90.65721,1,2.0,1.0,1.0,2.0,67.65
2025-09-03 19:53:07.189,,,,,,,,,,,,,,,,,,,,,,,,,,,,,,,,,,,,,,,,,,,,,,,,,,,,,,,,,,/muse/elements/blink
2025-09-03 19:53:07.963,,,,,,,,,,,,,,,,,,,,,,,,,,,,,,,,,,,,,,,,,,,,,,,,,,,,,,,,,,/muse/elements/blink
2025-09-03 19:53:08.031,0.0,1.3946465,1.2026745,0.0,0.0,0.41988865,0.5279925,0.0,0.0,0.59141356,0.5038285,0.0,0.0,0.21726358,0.15420946,0.0,0.0,-0.22331457,-0.089896485,0.0,1269.0045,803.4609,777.263,417.6616,688.2256,684.3313,678.04736,1252.7192,0.01904296875,-0.36260986328125,0.95013427734375,4.134674072265625,-4.74029541015625,10.833892822265625,8.056221061917364,7.691413585103593,5.827703311637222,4.807255561118661,0.0,0.0,0.0,0.0,0.0,0.0,0.0,0.0,0.0,0.0,0.0,0.0,88.77489,1,2.0,1.0,1.0,2.0,67.65
2025-09-03 19:53:08.331,,,,,,,,,,,,,,,,,,,,,,,,,,,,,,,,,,,,,,,,,,,,,,,,,,,,,,,,,,/muse/elements/blink
2025-09-03 19:53:08.580,,,,,,,,,,,,,,,,,,,,,,,,,,,,,,,,,,,,,,,,,,,,,,,,,,,,,,,,,,/muse/elements/blink
2025-09-03 19:53:09.035,0.0,1.3946465,1.2026745,0.0,0.0,0.41988865,0.5279925,0.0,0.0,0.59141356,0.5038285,0.0,0.0,0.21726358,0.15420946,0.0,0.0,-0.22331457,-0.089896485,0.0,711.8568,612.9067,640.2551,546.6154,652.73456,624.67804,598.65717,1167.7532,0.13323974609375,-0.47369384765625,0.95465087890625,-0.0897216796875,9.16656494140625,-25.5706787109375,8.061866819254703,7.6540905514627,5.824865174164938,4.763737453210309,0.0,0.0,0.0,0.0,0.0,0.0,0.0,0.0,0.0,0.0,0.0,0.0,85.935165,1,4.0,1.0,1.0,2.0,67.63
2025-09-03 19:53:09.323,,,,,,,,,,,,,,,,,,,,,,,,,,,,,,,,,,,,,,,,,,,,,,,,,,,,,,,,,,/muse/elements/blink
2025-09-03 19:53:09.823,,,,,,,,,,,,,,,,,,,,,,,,,,,,,,,,,,,,,,,,,,,,,,,,,,,,,,,,,,/muse/elements/blink
2025-09-03 19:53:10.039,0.0,1.3946465,1.2026745,0.0,0.0,0.41988865,0.5279925,0.0,0.0,0.59141356,0.5038285,0.0,0.0,0.21726358,0.15420946,0.0,0.0,-0.22331457,-0.089896485,0.0,529.0911,730.6202,726.6374,647.6012,677.2508,693.9785,679.729,1204.8373,-0.10968017578125,-0.31512451171875,0.84033203125,-40.741119384765625,-18.91632080078125,-54.5208740234375,8.206733900770093,7.779670505209451,5.976079917983931,4.873173592732995,0.0,0.0,0.0,0.0,0.0,0.0,0.0,0.0,0.0,0.0,0.0,0.0,86.20152,1,4.0,1.0,1.0,2.0,67.63
2025-09-03 19:53:10.290,,,,,,,,,,,,,,,,,,,,,,,,,,,,,,,,,,,,,,,,,,,,,,,,,,,,,,,,,,/muse/elements/blink
2025-09-03 19:53:10.681,,,,,,,,,,,,,,,,,,,,,,,,,,,,,,,,,,,,,,,,,,,,,,,,,,,,,,,,,,/muse/elements/blink
2025-09-03 19:53:11.050,0.0,1.3946465,1.2026745,0.0,0.0,0.41988865,0.5279925,0.0,0.0,0.59141356,0.5038285,0.0,0.0,0.21726358,0.15420946,0.0,0.0,-0.22331457,-0.089896485,0.0,534.75555,735.311,740.5329,745.93176,760.53534,756.1985,758.32263,1322.4623,-0.02569580078125,-0.1893310546875,0.94921875,-4.643096923828125,-13.62274169921875,-10.983428955078125,8.201637460362873,7.7429883413203635,5.9670161886369595,4.841893045323415,0.0,0.0,0.0,0.0,0.0,0.0,0.0,0.0,0.0,0.0,0.0,0.0,87.52225,1,2.0,1.0,1.0,2.0,67.63
2025-09-03 19:53:11.065,,,,,,,,,,,,,,,,,,,,,,,,,,,,,,,,,,,,,,,,,,,,,,,,,,,,,,,,,,/muse/elements/blink
2025-09-03 19:53:12.056,0.0,0.87140745,1.3309996,0.0,0.0,0.20326985,0.452506,0.0,0.0,0.49697074,0.5673546,0.0,0.0,-0.02196869,-0.029111255,0.0,0.0,-0.34366906,-0.27015564,0.0,708.228,738.3202,739.9133,695.2176,752.65826,756.0215,735.2225,1099.6918,0.12860107421875,-0.27581787109375,0.93780517578125,-24.50897216796875,3.805694580078125,-30.69976806640625,8.163429416112344,7.713996614452948,5.934575972152683,4.827122523424648,0.0,0.0,0.0,0.0,0.0,0.0,0.0,0.0,0.0,0.0,0.0,0.0,88.282845,1,2.0,1.0,1.0,2.0,67.63
2025-09-03 19:53:13.057,0.0,0.9228713,1.0864745,1.2120057,0.0,0.043543793,0.81231284,1.0410546,0.0,0.33484524,0.7854248,0.8876115,0.0,0.05928543,0.36084306,0.90068716,0.0,-0.2774608,-0.014452371,0.75165683,548.82806,758.32263,751.8617,655.4782,759.9158,764.25256,756.287,1316.9749,0.165771484375,-0.4056396484375,0.92169189453125,8.4039306640625,2.086029052734375,8.61328125,7.9900588894452,7.577857568605012,5.7289178170374075,4.694828696087548,0.0,0.0,0.0,0.0,0.0,0.0,0.0,0.0,0.0,0.0,0.0,0.0,87.93713,1,1.0,1.0,1.0,1.0,67.63
2025-09-03 19:53:13.809,,,,,,,,,,,,,,,,,,,,,,,,,,,,,,,,,,,,,,,,,,,,,,,,,,,,,,,,,,/muse/elements/blink
2025-09-03 19:53:14.062,0.0,0.96185356,1.3148208,1.197733,0.0,0.116616435,0.5852722,0.82000446,0.0,-0.004265063,0.4242259,0.8871432,0.0,0.10966337,0.39236325,0.9380369,0.0,-0.31165498,-0.046249695,0.8217411,1294.9368,661.49664,740.6214,1450.0,776.555,774.3423,749.472,1121.6414,-0.13409423828125,-0.40216064453125,0.90362548828125,5.316009521484375,13.151702880859375,20.852813720703125,7.975593543618721,7.605994802470019,5.73126767279403,4.731053095868202,0.0,0.0,0.0,0.0,0.0,0.0,0.0,0.0,0.0,0.0,0.0,0.0,88.11956,1,1.0,1.0,1.0,1.0,67.60
2025-09-03 19:53:14.801,,,,,,,,,,,,,,,,,,,,,,,,,,,,,,,,,,,,,,,,,,,,,,,,,,,,,,,,,,/muse/elements/blink
2025-09-03 19:53:15.065,0.0,1.0948524,1.4383578,1.197733,0.0,0.30846366,0.6342014,0.82000446,0.0,-0.0054611485,0.37807932,0.8871432,0.0,0.1033379,0.5081986,0.9380369,0.0,-0.44955784,0.010023384,0.8217411,1059.1559,630.5195,706.1039,951.26654,710.70624,681.0566,661.5852,1148.3702,-0.1705322265625,-0.17132568359375,0.95428466796875,5.271148681640625,-7.245025634765625,-15.065765380859375,8.020271320601768,7.62439691962902,5.781194478220442,4.742558233793481,0.0,0.0,0.0,0.0,0.0,0.0,0.0,0.0,0.0,0.0,0.0,0.0,89.45744,1,1.0,2.0,1.0,1.0,67.60
2025-09-03 19:53:15.301,,,,,,,,,,,,,,,,,,,,,,,,,,,,,,,,,,,,,,,,,,,,,,,,,,,,,,,,,,/muse/elements/blink
2025-09-03 19:53:15.976,,,,,,,,,,,,,,,,,,,,,,,,,,,,,,,,,,,,,,,,,,,,,,,,,,,,,,,,,,/muse/elements/blink
2025-09-03 19:53:16.070,0.0,1.0948524,1.4383578,1.197733,0.0,0.30846366,0.6342014,0.82000446,0.0,-0.0054611485,0.37807932,0.8871432,0.0,0.1033379,0.5081986,0.9380369,0.0,-0.44955784,0.010023384,0.8217411,217.8142,714.9545,723.9822,295.08026,765.40314,775.7584,764.6066,1283.254,-0.016845703125,-0.2330322265625,0.92303466796875,-8.65814208984375,-14.587249755859375,-0.755157470703125,8.050972033474,7.651191378775958,5.824773621343252,4.778660563145221,0.0,0.0,0.0,0.0,0.0,0.0,0.0,0.0,0.0,0.0,0.0,0.0,89.27912,1,4.0,1.0,1.0,2.0,67.60
2025-09-03 19:53:16.661,,,,,,,,,,,,,,,,,,,,,,,,,,,,,,,,,,,,,,,,,,,,,,,,,,,,,,,,,,/muse/elements/blink
2025-09-03 19:53:17.054,,,,,,,,,,,,,,,,,,,,,,,,,,,,,,,,,,,,,,,,,,,,,,,,,,,,,,,,,,/muse/elements/blink
2025-09-03 19:53:17.074,0.0,1.0948524,1.4383578,1.197733,0.0,0.30846366,0.6342014,0.82000446,0.0,-0.0054611485,0.37807932,0.8871432,0.0,0.1033379,0.5081986,0.9380369,0.0,-0.44955784,0.010023384,0.8217411,619.0136,680.9681,726.2833,684.68536,566.88336,515.3726,555.90857,912.8548,0.0849609375,-0.305419921875,0.95635986328125,-2.13836669921875,6.856231689453125,-8.560943603515625,8.113868821972677,7.722297403619198,5.9132136470924825,4.863438476026989,0.0,0.0,0.0,0.0,0.0,0.0,0.0,0.0,0.0,0.0,0.0,0.0,87.36596,1,2.0,1.0,1.0,2.0,67.60
2025-09-03 19:53:17.650,,,,,,,,,,,,,,,,,,,,,,,,,,,,,,,,,,,,,,,,,,,,,,,,,,,,,,,,,,/muse/elements/blink
2025-09-03 19:53:18.078,0.0,1.0948524,1.4383578,1.197733,0.0,0.30846366,0.6342014,0.82000446,0.0,-0.0054611485,0.37807932,0.8871432,0.0,0.1033379,0.5081986,0.9380369,0.0,-0.44955784,0.010023384,0.8217411,681.67615,774.2538,749.2065,301.1872,536.0831,526.8785,539.6234,874.53156,0.00677490234375,-0.2801513671875,0.998291015625,5.562744140625,7.177734375,6.138458251953125,8.049263047469184,7.674445795484348,5.843816608254059,4.818913287080085,0.0,0.0,0.0,0.0,0.0,0.0,0.0,0.0,0.0,0.0,0.0,0.0,85.14549,1,2.0,1.0,1.0,2.0,67.60
2025-09-03 19:53:18.918,,,,,,,,,,,,,,,,,,,,,,,,,,,,,,,,,,,,,,,,,,,,,,,,,,,,,,,,,,/muse/elements/blink
2025-09-03 19:53:19.083,0.0,1.0948524,1.4383578,1.197733,0.0,0.30846366,0.6342014,0.82000446,0.0,-0.0054611485,0.37807932,0.8871432,0.0,0.1033379,0.5081986,0.9380369,0.0,-0.44955784,0.010023384,0.8217411,569.0075,790.8045,759.4732,494.0426,739.6478,738.85126,739.8248,1328.2152,-0.30877685546875,-0.19293212890625,0.89752197265625,-5.4132080078125,3.641204833984375,25.069732666015625,8.111305342965453,7.713966096845719,5.9151667739551295,4.849217271058341,0.0,0.0,0.0,0.0,0.0,0.0,0.0,0.0,0.0,0.0,0.0,0.0,84.55285,1,2.0,1.0,4.0,2.0,67.60
2025-09-03 19:53:19.169,,,,,,,,,,,,,,,,,,,,,,,,,,,,,,,,,,,,,,,,,,,,,,,,,,,,,,,,,,/muse/elements/blink
2025-09-03 19:53:19.680,,,,,,,,,,,,,,,,,,,,,,,,,,,,,,,,,,,,,,,,,,,,,,,,,,,,,,,,,,/muse/elements/blink
2025-09-03 19:53:20.023,,,,,,,,,,,,,,,,,,,,,,,,,,,,,,,,,,,,,,,,,,,,,,,,,,,,,,,,,,/muse/elements/blink
2025-09-03 19:53:20.083,0.0,1.0948524,1.4383578,1.197733,0.0,0.30846366,0.6342014,0.82000446,0.0,-0.0054611485,0.37807932,0.8871432,0.0,0.1033379,0.5081986,0.9380369,0.0,-0.44955784,0.010023384,0.8217411,1081.8135,687.6946,666.1875,735.75354,751.5077,759.3847,750.9766,1290.1575,-0.02813720703125,-0.1683349609375,0.82232666015625,-11.2451171875,-24.022979736328125,0.897216796875,8.193733400090599,7.762885821233579,6.009801873971819,4.884709248265503,0.0,0.0,0.0,0.0,0.0,0.0,0.0,0.0,0.0,0.0,0.0,0.0,87.10542,1,2.0,1.0,1.0,2.0,67.59
2025-09-03 19:53:20.360,,,,,,,,,,,,,,,,,,,,,,,,,,,,,,,,,,,,,,,,,,,,,,,,,,,,,,,,,,/muse/elements/blink
2025-09-03 19:53:20.663,,,,,,,,,,,,,,,,,,,,,,,,,,,,,,,,,,,,,,,,,,,,,,,,,,,,,,,,,,/muse/elements/blink
2025-09-03 19:53:21.087,0.0,1.0948524,1.4383578,1.197733,0.0,0.30846366,0.6342014,0.82000446,0.0,-0.0054611485,0.37807932,0.8871432,0.0,0.1033379,0.5081986,0.9380369,0.0,-0.44955784,0.010023384,0.8217411,1450.0,746.90533,766.2882,1305.4691,792.57465,786.46765,793.9022,1376.8937,0.10955810546875,-0.24542236328125,0.9033203125,11.267547607421875,7.357177734375,1.1065673828125,8.144050735522018,7.740485897527597,5.947729060868321,4.85727391936676,0.0,0.0,0.0,0.0,0.0,0.0,0.0,0.0,0.0,0.0,0.0,0.0,91.84793,1,2.0,1.0,1.0,4.0,67.59
2025-09-03 19:53:22.092,0.0,1.0948524,1.4383578,1.197733,0.0,0.30846366,0.6342014,0.82000446,0.0,-0.0054611485,0.37807932,0.8871432,0.0,0.1033379,0.5081986,0.9380369,0.0,-0.44955784,0.010023384,0.8217411,691.4118,731.94775,650.34485,476.69534,766.9078,791.6896,749.91455,1212.8914,0.3580322265625,-0.1173095703125,0.9532470703125,4.927215576171875,-16.04522705078125,-6.35528564453125,8.181556874806285,7.766792074958873,5.98731039744415,4.861760007629401,0.0,0.0,0.0,0.0,0.0,0.0,0.0,0.0,0.0,0.0,0.0,0.0,93.523315,1,2.0,1.0,1.0,2.0,67.59
2025-09-03 19:53:22.795,,,,,,,,,,,,,,,,,,,,,,,,,,,,,,,,,,,,,,,,,,,,,,,,,,,,,,,,,,/muse/elements/blink
2025-09-03 19:53:22.944,,,,,,,,,,,,,,,,,,,,,,,,,,,,,,,,,,,,,,,,,,,,,,,,,,,,,,,,,,/muse/elements/blink
2025-09-03 19:53:23.096,0.0,1.0948524,1.4383578,1.197733,0.0,0.30846366,0.6342014,0.82000446,0.0,-0.0054611485,0.37807932,0.8871432,0.0,0.1033379,0.5081986,0.9380369,0.0,-0.44955784,0.010023384,0.8217411,1450.0,578.7432,802.2218,1450.0,704.06824,663.79785,656.71735,1259.6228,0.19476318359375,-0.25714111328125,0.89373779296875,75.2166748046875,54.6405029296875,-206.19537353515625,8.332771618625276,7.911872779724865,6.146978518465536,4.9984178528002285,0.0,0.0,0.0,0.0,0.0,0.0,0.0,0.0,0.0,0.0,0.0,0.0,91.663704,1,2.0,1.0,1.0,4.0,67.59
2025-09-03 19:53:24.100,0.0,1.0948524,1.4383578,1.197733,0.0,0.30846366,0.6342014,0.82000446,0.0,-0.0054611485,0.37807932,0.8871432,0.0,0.1033379,0.5081986,0.9380369,0.0,-0.44955784,0.010023384,0.8217411,592.28467,716.4591,728.85004,1177.0464,803.99194,793.19415,802.1333,1400.0824,0.0731201171875,-0.11090087890625,0.9034423828125,-0.874786376953125,-7.798309326171875,16.1199951171875,8.245796438023032,7.841895906349093,6.048864411224757,4.920353813508809,0.0,0.0,0.0,0.0,0.0,0.0,0.0,0.0,0.0,0.0,0.0,0.0,88.904175,1,2.0,1.0,1.0,4.0,67.59
2025-09-03 19:53:24.152,,,,,,,,,,,,,,,,,,,,,,,,,,,,,,,,,,,,,,,,,,,,,,,,,,,,,,,,,,/muse/elements/blink
2025-09-03 19:53:24.527,,,,,,,,,,,,,,,,,,,,,,,,,,,,,,,,,,,,,,,,,,,,,,,,,,,,,,,,,,/muse/elements/blink
2025-09-03 19:53:24.777,,,,,,,,,,,,,,,,,,,,,,,,,,,,,,,,,,,,,,,,,,,,,,,,,,,,,,,,,,/muse/elements/blink
2025-09-03 19:53:25.104,0.0,1.0948524,1.4383578,1.197733,0.0,0.30846366,0.6342014,0.82000446,0.0,-0.0054611485,0.37807932,0.8871432,0.0,0.1033379,0.5081986,0.9380369,0.0,-0.44955784,0.010023384,0.8217411,2.832204,358.80487,175.68517,700.7935,777.61707,797.44244,794.7873,1367.7776,0.2445068359375,-0.19354248046875,1.04571533203125,9.031982421875,-17.473297119140625,15.170440673828125,8.278785971437427,7.854286054884009,6.097082230646353,4.939763011706363,0.0,0.0,0.0,0.0,0.0,0.0,0.0,0.0,0.0,0.0,0.0,0.0,87.26454,1,2.0,1.0,4.0,4.0,67.59
2025-09-03 19:53:25.303,,,,,,,,,,,,,,,,,,,,,,,,,,,,,,,,,,,,,,,,,,,,,,,,,,,,,,,,,,/muse/elements/blink
2025-09-03 19:53:25.403,,,,,,,,,,,,,,,,,,,,,,,,,,,,,,,,,,,,,,,,,,,,,,,,,,,,,,,,,,/muse/elements/jaw_clench
2025-09-03 19:53:25.778,,,,,,,,,,,,,,,,,,,,,,,,,,,,,,,,,,,,,,,,,,,,,,,,,,,,,,,,,,/muse/elements/blink
2025-09-03 19:53:26.108,0.0,1.0948524,1.4383578,1.197733,0.0,0.30846366,0.6342014,0.82000446,0.0,-0.0054611485,0.37807932,0.8871432,0.0,0.1033379,0.5081986,0.9380369,0.0,-0.44955784,0.010023384,0.8217411,2.9207106,518.9129,377.5682,2.9207106,750.8881,746.63983,735.134,1214.4845,-0.48193359375,0.19561767578125,0.85162353515625,-14.542388916015625,-9.547882080078125,34.2138671875,8.214698996256825,7.898750208616455,6.109258755930668,4.99866199365806,0.0,0.0,0.0,0.0,0.0,0.0,0.0,0.0,0.0,0.0,0.0,0.0,86.55432,1,4.0,4.0,4.0,4.0,67.54
2025-09-03 19:53:26.797,,,,,,,,,,,,,,,,,,,,,,,,,,,,,,,,,,,,,,,,,,,,,,,,,,,,,,,,,,/muse/elements/blink
2025-09-03 19:53:27.113,0.0,1.0948524,1.4383578,1.197733,0.0,0.30846366,0.6342014,0.82000446,0.0,-0.0054611485,0.37807932,0.8871432,0.0,0.1033379,0.5081986,0.9380369,0.0,-0.44955784,0.010023384,0.8217411,554.8465,797.9735,695.3946,150.19533,773.3687,779.21014,761.7744,1228.026,0.25885009765625,-0.22979736328125,0.9598388671875,-15.050811767578125,-5.435638427734375,-13.390960693359375,8.24662041341821,7.98017118470305,6.1481381875402334,5.077275349879598,0.0,0.0,0.0,0.0,0.0,0.0,0.0,0.0,0.0,0.0,0.0,0.0,85.11552,1,2.0,2.0,4.0,2.0,67.54
2025-09-03 19:53:27.144,,,,,,,,,,,,,,,,,,,,,,,,,,,,,,,,,,,,,,,,,,,,,,,,,,,,,,,,,,/muse/elements/blink
2025-09-03 19:53:27.637,,,,,,,,,,,,,,,,,,,,,,,,,,,,,,,,,,,,,,,,,,,,,,,,,,,,,,,,,,/muse/elements/blink
2025-09-03 19:53:28.117,0.0,1.0948524,1.4383578,1.197733,0.0,0.30846366,0.6342014,0.82000446,0.0,-0.0054611485,0.37807932,0.8871432,0.0,0.1033379,0.5081986,0.9380369,0.0,-0.44955784,0.010023384,0.8217411,397.48215,648.7518,692.56244,380.84296,760.80084,765.31464,751.7732,1215.1926,0.462646484375,-0.29840087890625,0.87738037109375,-6.8487548828125,-3.5589599609375,-3.686065673828125,8.214180196933935,7.927802970698329,6.100072956154781,5.011570941515867,0.0,0.0,0.0,0.0,0.0,0.0,0.0,0.0,0.0,0.0,0.0,0.0,98.375626,1,2.0,1.0,1.0,2.0,67.54
2025-09-03 19:53:29.122,0.0,1.0948524,1.4383578,1.197733,0.0,0.30846366,0.6342014,0.82000446,0.0,-0.0054611485,0.37807932,0.8871432,0.0,0.1033379,0.5081986,0.9380369,0.0,-0.44955784,0.010023384,0.8217411,937.7251,742.65704,783.0159,880.2844,758.1456,749.118,733.9834,1212.0063,0.34417724609375,-0.30035400390625,0.87896728515625,1.3458251953125,2.400054931640625,-0.67291259765625,8.22177908113392,7.902351286269461,6.115270724554753,4.994267458217104,0.0,0.0,0.0,0.0,0.0,0.0,0.0,0.0,0.0,0.0,0.0,0.0,106.42604,1,2.0,1.0,1.0,2.0,67.54
2025-09-03 19:53:29.145,,,,,,,,,,,,,,,,,,,,,,,,,,,,,,,,,,,,,,,,,,,,,,,,,,,,,,,,,,/muse/elements/blink
2025-09-03 19:53:29.495,,,,,,,,,,,,,,,,,,,,,,,,,,,,,,,,,,,,,,,,,,,,,,,,,,,,,,,,,,/muse/elements/blink
2025-09-03 19:53:30.127,0.0,1.0948524,1.4383578,1.197733,0.0,0.30846366,0.6342014,0.82000446,0.0,-0.0054611485,0.37807932,0.8871432,0.0,0.1033379,0.5081986,0.9380369,0.0,-0.44955784,0.010023384,0.8217411,747.5249,743.01105,775.5814,635.82983,761.9514,765.5802,736.01904,1195.0132,0.28692626953125,-0.22821044921875,0.899658203125,12.33673095703125,9.1217041015625,4.777679443359375,8.008613594640345,7.7132031566649975,5.8647211692058265,4.81689912500298,0.0,0.0,0.0,0.0,0.0,0.0,0.0,0.0,0.0,0.0,0.0,0.0,105.649864,1,4.0,1.0,1.0,2.0,67.54
2025-09-03 19:53:30.403,,,,,,,,,,,,,,,,,,,,,,,,,,,,,,,,,,,,,,,,,,,,,,,,,,,,,,,,,,/muse/elements/blink
2025-09-03 19:53:30.653,,,,,,,,,,,,,,,,,,,,,,,,,,,,,,,,,,,,,,,,,,,,,,,,,,,,,,,,,,/muse/elements/blink
2025-09-03 19:53:31.128,0.0,1.0948524,1.4383578,1.197733,0.0,0.30846366,0.6342014,0.82000446,0.0,-0.0054611485,0.37807932,0.8871432,0.0,0.1033379,0.5081986,0.9380369,0.0,-0.44955784,0.010023384,0.8217411,484.74942,655.7438,722.47754,395.6235,798.7701,794.7873,763.54456,1273.1643,0.06414794921875,-0.10498046875,1.0338134765625,4.239349365234375,-0.814971923828125,10.549774169921875,7.862861502515319,7.6163707889278305,5.706731516582028,4.724369739885082,0.0,0.0,0.0,0.0,0.0,0.0,0.0,0.0,0.0,0.0,0.0,0.0,102.52649,1,2.0,1.0,1.0,2.0,67.52
2025-09-03 19:53:31.262,,,,,,,,,,,,,,,,,,,,,,,,,,,,,,,,,,,,,,,,,,,,,,,,,,,,,,,,,,/muse/elements/blink
2025-09-03 19:53:32.130,0.0,1.0948524,1.4383578,1.197733,0.0,0.30846366,0.6342014,0.82000446,0.0,-0.0054611485,0.37807932,0.8871432,0.0,0.1033379,0.5081986,0.9380369,0.0,-0.44955784,0.010023384,0.8217411,496.07825,681.4991,722.30054,491.91846,766.8193,766.1997,746.37427,1214.219,0.040283203125,-0.1435546875,1.00054931640625,2.4224853515625,-0.127105712890625,12.4114990234375,7.933540280857354,7.666480699997615,5.799413489736071,4.786381517774122,0.0,0.0,0.0,0.0,0.0,0.0,0.0,0.0,0.0,0.0,0.0,0.0,100.61987,1,2.0,1.0,1.0,2.0,67.52
2025-09-03 19:53:33.138,0.0,1.0948524,1.1557254,1.197733,0.0,0.30846366,0.6505736,0.82000446,0.0,-0.0054611485,1.3055384,0.8871432,0.0,0.1033379,0.63848525,0.9380369,0.0,-0.44955784,0.2013009,0.8217411,483.77588,711.9453,687.075,562.7236,790.18494,787.8838,758.1456,1242.187,-0.03369140625,-0.04901123046875,0.986572265625,-0.059814453125,1.876678466796875,6.347808837890625,7.998817442719882,7.721046181722814,5.886663328803376,4.8508041866342415,0.0,0.0,0.0,0.0,0.0,0.0,0.0,0.0,0.0,0.0,0.0,0.0,96.475,1,2.0,1.0,1.0,2.0,67.52
2025-09-03 19:53:33.759,,,,,,,,,,,,,,,,,,,,,,,,,,,,,,,,,,,,,,,,,,,,,,,,,,,,,,,,,,/muse/elements/blink
2025-09-03 19:53:34.145,0.0,1.3654847,1.1259079,1.197733,0.0,1.204113,0.8792045,0.82000446,0.0,1.0909795,1.3652114,0.8871432,0.0,0.8444485,0.57814044,0.9380369,0.0,0.25503325,0.24869078,0.8217411,537.9418,726.8144,695.83716,601.6664,772.12964,769.3859,748.764,1405.4813,-0.35736083984375,0.01654052734375,0.9993896484375,8.471221923828125,20.120086669921875,24.38934326171875,7.937507569797106,7.696204849438524,5.820653744367355,4.8327987983692156,0.0,0.0,0.0,0.0,0.0,0.0,0.0,0.0,0.0,0.0,0.0,0.0,95.07024,1,2.0,1.0,1.0,2.0,67.52
2025-09-03 19:53:34.147,,,,,,,,,,,,,,,,,,,,,,,,,,,,,,,,,,,,,,,,,,,,,,,,,,,,,,,,,,/muse/elements/blink
2025-09-03 19:53:34.411,,,,,,,,,,,,,,,,,,,,,,,,,,,,,,,,,,,,,,,,,,,,,,,,,,,,,,,,,,/muse/elements/blink
2025-09-03 19:53:34.527,,,,,,,,,,,,,,,,,,,,,,,,,,,,,,,,,,,,,,,,,,,,,,,,,,,,,,,,,,/muse/elements/blink
2025-09-03 19:53:34.884,,,,,,,,,,,,,,,,,,,,,,,,,,,,,,,,,,,,,,,,,,,,,,,,,,,,,,,,,,/muse/elements/blink
2025-09-03 19:53:35.147,0.0,1.2054459,1.0855043,1.197733,0.0,1.3079168,1.0586475,0.82000446,0.0,0.9724261,1.0061874,0.8871432,0.0,0.89017147,0.48858762,0.9380369,0.0,0.29439425,0.3014696,0.8217411,720.79596,753.01227,678.93243,719.5569,781.95386,789.91943,779.5642,1344.4119,-0.0787353515625,-0.10528564453125,1.14215087890625,-12.344207763671875,-21.630401611328125,-18.280792236328125,8.023902915862003,7.792396347423884,5.933202679827385,4.940739575137687,0.0,0.0,0.0,0.0,0.0,0.0,0.0,0.0,0.0,0.0,0.0,0.0,91.147575,1,2.0,1.0,1.0,2.0,67.52
2025-09-03 19:53:35.539,,,,,,,,,,,,,,,,,,,,,,,,,,,,,,,,,,,,,,,,,,,,,,,,,,,,,,,,,,/muse/elements/blink
2025-09-03 19:53:35.777,,,,,,,,,,,,,,,,,,,,,,,,,,,,,,,,,,,,,,,,,,,,,,,,,,,,,,,,,,/muse/elements/blink
2025-09-03 19:53:36.156,0.0,1.2054459,1.0855043,1.197733,0.0,1.3079168,1.0586475,0.82000446,0.0,0.9724261,1.0061874,0.8871432,0.0,0.89017147,0.48858762,0.9380369,0.0,0.29439425,0.3014696,0.8217411,653.08856,786.9102,786.20215,642.2023,752.1272,752.83527,748.2329,1208.7316,-0.17333984375,0.03570556640625,1.0440673828125,2.041168212890625,10.84136962890625,60.15838623046875,8.011329661683714,7.759620437260091,5.917180936032234,4.902317907636554,0.0,0.0,0.0,0.0,0.0,0.0,0.0,0.0,0.0,0.0,0.0,0.0,87.34431,1,2.0,1.0,1.0,2.0,67.52
2025-09-03 19:53:36.258,,,,,,,,,,,,,,,,,,,,,,,,,,,,,,,,,,,,,,,,,,,,,,,,,,,,,,,,,,/muse/elements/blink
2025-09-03 19:53:36.521,,,,,,,,,,,,,,,,,,,,,,,,,,,,,,,,,,,,,,,,,,,,,,,,,,,,,,,,,,/muse/elements/blink
2025-09-03 19:53:37.020,,,,,,,,,,,,,,,,,,,,,,,,,,,,,,,,,,,,,,,,,,,,,,,,,,,,,,,,,,/muse/elements/blink
2025-09-03 19:53:37.167,0.0,1.2054459,1.0855043,1.197733,0.0,1.3079168,1.0586475,0.82000446,0.0,0.9724261,1.0061874,0.8871432,0.0,0.89017147,0.48858762,0.9380369,0.0,0.29439425,0.3014696,0.8217411,551.8373,748.8525,722.9201,646.8931,756.99506,767.4388,743.8076,1202.7131,-0.2303466796875,0.058349609375,0.91888427734375,-1.79443359375,-4.164581298828125,-0.829925537109375,7.973518346327158,7.710456572014401,5.863714088167274,4.840214576925828,0.0,0.0,0.0,0.0,0.0,0.0,0.0,0.0,0.0,0.0,0.0,0.0,88.33005,1,2.0,1.0,1.0,2.0,67.49
2025-09-03 19:53:37.608,,,,,,,,,,,,,,,,,,,,,,,,,,,,,,,,,,,,,,,,,,,,,,,,,,,,,,,,,,/muse/elements/blink
2025-09-03 19:53:37.793,,,,,,,,,,,,,,,,,,,,,,,,,,,,,,,,,,,,,,,,,,,,,,,,,,,,,,,,,,/muse/elements/blink
2025-09-03 19:53:38.173,0.0,1.2054459,1.0855043,1.197733,0.0,1.3079168,1.0586475,0.82000446,0.0,0.9724261,1.0061874,0.8871432,0.0,0.89017147,0.48858762,0.9380369,0.0,0.29439425,0.3014696,0.8217411,704.8648,799.65515,936.84,611.40204,760.80084,765.5802,768.8549,1332.9945,-0.07403564453125,-0.1717529296875,1.041748046875,10.504913330078125,-6.063690185546875,-2.572021484375,8.04508213527883,7.762794268411892,5.952123596309277,4.902104284385953,0.0,0.0,0.0,0.0,0.0,0.0,0.0,0.0,0.0,0.0,0.0,0.0,90.27865,1,2.0,1.0,1.0,2.0,67.49
2025-09-03 19:53:38.669,,,,,,,,,,,,,,,,,,,,,,,,,,,,,,,,,,,,,,,,,,,,,,,,,,,,,,,,,,/muse/elements/blink
2025-09-03 19:53:39.152,,,,,,,,,,,,,,,,,,,,,,,,,,,,,,,,,,,,,,,,,,,,,,,,,,,,,,,,,,/muse/elements/blink
2025-09-03 19:53:39.182,0.0,1.2054459,1.0855043,1.197733,0.0,1.3079168,1.0586475,0.82000446,0.0,0.9724261,1.0061874,0.8871432,0.0,0.89017147,0.48858762,0.9380369,0.0,0.29439425,0.3014696,0.8217411,567.67993,729.11554,744.0731,588.2134,768.14685,761.7744,782.39636,1333.4371,-0.1522216796875,0.01373291015625,0.9671630859375,-0.299072265625,-7.140350341796875,14.8040771484375,7.960334740004291,7.676093746274706,5.844732136470925,4.804814152540352,0.0,0.0,0.0,0.0,0.0,0.0,0.0,0.0,0.0,0.0,0.0,0.0,92.73218,1,2.0,1.0,1.0,2.0,67.49
2025-09-03 19:53:40.004,,,,,,,,,,,,,,,,,,,,,,,,,,,,,,,,,,,,,,,,,,,,,,,,,,,,,,,,,,/muse/elements/blink
2025-09-03 19:53:40.186,0.0,1.2054459,1.0855043,1.197733,0.0,1.3079168,1.0586475,0.82000446,0.0,0.9724261,1.0061874,0.8871432,0.0,0.89017147,0.48858762,0.9380369,0.0,0.29439425,0.3014696,0.8217411,620.60675,726.2833,779.38715,709.4671,771.4216,783.6355,782.30786,1340.2521,-0.1715087890625,-0.0133056640625,0.9525146484375,2.519683837890625,13.89190673828125,-12.538604736328125,7.9802017023102785,7.715949741315595,5.8793696206756785,4.856175285506521,0.0,0.0,0.0,0.0,0.0,0.0,0.0,0.0,0.0,0.0,0.0,0.0,95.54887,1,2.0,1.0,1.0,2.0,67.49
2025-09-03 19:53:40.380,,,,,,,,,,,,,,,,,,,,,,,,,,,,,,,,,,,,,,,,,,,,,,,,,,,,,,,,,,/muse/elements/blink
2025-09-03 19:53:41.193,0.0,1.2054459,1.0855043,1.197733,0.0,1.3079168,1.0586475,0.82000446,0.0,0.9724261,1.0061874,0.8871432,0.0,0.89017147,0.48858762,0.9380369,0.0,0.29439425,0.3014696,0.8217411,333.84607,730.1776,746.19727,624.147,770.97906,768.05835,769.6515,1316.9749,-0.0811767578125,-0.04766845703125,0.9581298828125,-4.732818603515625,-4.194488525390625,-17.488250732421875,7.920356674534487,7.647254607443435,5.802800944138474,4.78964690174761,0.0,0.0,0.0,0.0,0.0,0.0,0.0,0.0,0.0,0.0,0.0,0.0,95.66987,1,2.0,1.0,1.0,2.0,67.49
2025-09-03 19:53:41.433,,,,,,,,,,,,,,,,,,,,,,,,,,,,,,,,,,,,,,,,,,,,,,,,,,,,,,,,,,/muse/elements/blink
2025-09-03 19:53:41.653,,,,,,,,,,,,,,,,,,,,,,,,,,,,,,,,,,,,,,,,,,,,,,,,,,,,,,,,,,/muse/elements/blink
2025-09-03 19:53:41.869,,,,,,,,,,,,,,,,,,,,,,,,,,,,,,,,,,,,,,,,,,,,,,,,,,,,,,,,,,/muse/elements/blink
2025-09-03 19:53:42.196,0.0,1.2054459,1.0855043,1.197733,0.0,1.3079168,1.0586475,0.82000446,0.0,0.9724261,1.0061874,0.8871432,0.0,0.89017147,0.48858762,0.9380369,0.0,0.29439425,0.3014696,0.8217411,646.45056,715.5741,750.5341,661.14264,548.2085,537.9418,581.2214,605.1181,-0.052001953125,-0.1614990234375,0.8817138671875,-5.5926513671875,3.57391357421875,8.067474365234375,7.947944591469375,7.67758910902892,5.842931597644422,4.824009727487304,0.0,0.0,0.0,0.0,0.0,0.0,0.0,0.0,0.0,0.0,0.0,0.0,92.63246,1,2.0,1.0,1.0,2.0,67.49
2025-09-03 19:53:43.201,0.0,1.2054459,1.0855043,1.197733,0.0,1.3079168,1.0586475,0.82000446,0.0,0.9724261,1.0061874,0.8871432,0.0,0.89017147,0.48858762,0.9380369,0.0,0.29439425,0.3014696,0.8217411,845.4129,783.10443,791.07,993.21857,573.69836,555.2005,593.7893,646.5391,-0.1268310546875,-0.15185546875,0.96820068359375,1.936492919921875,4.26177978515625,0.3289794921875,7.942176763703121,7.649634980807286,5.829534368070953,4.790745535607849,0.0,0.0,0.0,0.0,0.0,0.0,0.0,0.0,0.0,0.0,0.0,0.0,91.56305,1,2.0,1.0,1.0,2.0,67.48
2025-09-03 19:53:43.639,,,,,,,,,,,,,,,,,,,,,,,,,,,,,,,,,,,,,,,,,,,,,,,,,,,,,,,,,,/muse/elements/blink
2025-09-03 19:53:44.204,0.0,1.2054459,1.0855043,1.197733,0.0,1.3079168,1.0586475,0.82000446,0.0,0.9724261,1.0061874,0.8871432,0.0,0.89017147,0.48858762,0.9380369,0.0,0.29439425,0.3014696,0.8217411,829.8358,749.56055,668.22314,616.0929,757.7031,762.4824,770.62506,1344.5004,-0.25860595703125,0.13580322265625,0.996826171875,8.68804931640625,-2.923431396484375,-7.828216552734375,8.025795007510192,7.722633097298715,5.931310588179196,4.862370359773979,0.0,0.0,0.0,0.0,0.0,0.0,0.0,0.0,0.0,0.0,0.0,0.0,88.15025,1,2.0,1.0,1.0,2.0,67.48
2025-09-03 19:53:44.604,,,,,,,,,,,,,,,,,,,,,,,,,,,,,,,,,,,,,,,,,,,,,,,,,,,,,,,,,,/muse/elements/blink
2025-09-03 19:53:45.010,,,,,,,,,,,,,,,,,,,,,,,,,,,,,,,,,,,,,,,,,,,,,,,,,,,,,,,,,,/muse/elements/blink
2025-09-03 19:53:45.217,0.0,1.2054459,1.0855043,1.197733,0.0,1.3079168,1.0586475,0.82000446,0.0,0.9724261,1.0061874,0.8871432,0.0,0.89017147,0.48858762,0.9380369,0.0,0.29439425,0.3014696,0.8217411,790.716,832.13696,766.9963,715.22003,759.3847,757.43756,774.2538,1334.4991,-0.201904296875,0.19305419921875,1.046630859375,-4.388885498046875,-17.667694091796875,12.583465576171875,8.041450540018596,7.749671697303484,5.9421443387454405,4.872593758195647,0.0,0.0,0.0,0.0,0.0,0.0,0.0,0.0,0.0,0.0,0.0,0.0,87.1371,1,2.0,1.0,1.0,2.0,67.48
2025-09-03 19:53:45.486,,,,,,,,,,,,,,,,,,,,,,,,,,,,,,,,,,,,,,,,,,,,,,,,,,,,,,,,,,/muse/elements/blink
2025-09-03 19:53:46.115,,,,,,,,,,,,,,,,,,,,,,,,,,,,,,,,,,,,,,,,,,,,,,,,,,,,,,,,,,/muse/elements/blink
2025-09-03 19:53:46.220,0.0,1.2054459,1.0855043,1.197733,0.0,1.3079168,1.0586475,0.82000446,0.0,0.9724261,1.0061874,0.8871432,0.0,0.89017147,0.48858762,0.9380369,0.0,0.29439425,0.3014696,0.8217411,679.02094,724.0707,723.4511,701.6786,607.06525,594.9399,621.8458,689.19916,-0.23876953125,0.17059326171875,0.95281982421875,-5.36834716796875,11.491851806640625,19.02099609375,8.078651503230574,7.779243258708247,5.989171971485111,4.913975633597978,0.0,0.0,0.0,0.0,0.0,0.0,0.0,0.0,0.0,0.0,0.0,0.0,88.07419,1,2.0,1.0,1.0,2.0,67.48
2025-09-03 19:53:46.329,,,,,,,,,,,,,,,,,,,,,,,,,,,,,,,,,,,,,,,,,,,,,,,,,,,,,,,,,,/muse/elements/blink
2025-09-03 19:53:47.224,0.0,1.2054459,1.0855043,1.197733,0.0,1.3079168,1.0586475,0.82000446,0.0,0.9724261,1.0061874,0.8871432,0.0,0.89017147,0.48858762,0.9380369,0.0,0.29439425,0.3014696,0.8217411,619.8102,734.69147,734.69147,661.23114,777.1745,772.7492,779.38715,1340.0751,-0.2537841796875,0.03704833984375,0.92462158203125,-1.772003173828125,-5.78704833984375,-23.37249755859375,8.040504494194503,7.727332808811959,5.940526905562311,4.861058102663138,0.0,0.0,0.0,0.0,0.0,0.0,0.0,0.0,0.0,0.0,0.0,0.0,88.38407,1,2.0,1.0,1.0,2.0,67.48
2025-09-03 19:53:47.729,,,,,,,,,,,,,,,,,,,,,,,,,,,,,,,,,,,,,,,,,,,,,,,,,,,,,,,,,,/muse/elements/blink
2025-09-03 19:53:48.229,0.0,1.2054459,1.0855043,1.197733,0.0,1.3079168,1.0586475,0.82000446,0.0,0.9724261,1.0061874,0.8871432,0.0,0.89017147,0.48858762,0.9380369,0.0,0.29439425,0.3014696,0.8217411,663.1783,748.6755,746.72833,742.0375,752.83527,750.18005,766.0227,1320.0726,-0.3486328125,0.09918212890625,0.92681884765625,-2.355194091796875,-3.775787353515625,6.1907958984375,8.077339246119735,7.771857997758863,5.98944662995017,4.915501513959421,0.0,0.0,0.0,0.0,0.0,0.0,0.0,0.0,0.0,0.0,0.0,0.0,87.81757,1,2.0,1.0,1.0,2.0,67.45
2025-09-03 19:53:48.255,,,,,,,,,,,,,,,,,,,,,,,,,,,,,,,,,,,,,,,,,,,,,,,,,,,,,,,,,,/muse/elements/blink
2025-09-03 19:53:48.621,,,,,,,,,,,,,,,,,,,,,,,,,,,,,,,,,,,,,,,,,,,,,,,,,,,,,,,,,,/muse/elements/blink
2025-09-03 19:53:49.229,0.0,1.2054459,1.0855043,1.197733,0.0,1.3079168,1.0586475,0.82000446,0.0,0.9724261,1.0061874,0.8871432,0.0,0.89017147,0.48858762,0.9380369,0.0,0.29439425,0.3014696,0.8217411,1038.1798,692.3854,750.9766,915.42145,756.3755,763.456,761.6859,1324.1439,-0.23284912109375,-0.031005859375,0.9892578125,-3.78326416015625,8.134765625,16.531219482421875,8.00632477409818,7.715247836349331,5.906499773502134,4.855107169253511,0.0,0.0,0.0,0.0,0.0,0.0,0.0,0.0,0.0,0.0,0.0,0.0,89.354225,1,2.0,1.0,1.0,2.0,67.45
2025-09-03 19:53:49.238,,,,,,,,,,,,,,,,,,,,,,,,,,,,,,,,,,,,,,,,,,,,,,,,,,,,,,,,,,/muse/elements/blink
2025-09-03 19:53:49.505,,,,,,,,,,,,,,,,,,,,,,,,,,,,,,,,,,,,,,,,,,,,,,,,,,,,,,,,,,/muse/elements/blink
2025-09-03 19:53:50.245,0.0,1.2054459,1.0855043,1.197733,0.0,1.3079168,1.0586475,0.82000446,0.0,0.9724261,1.0061874,0.8871432,0.0,0.89017147,0.48858762,0.9380369,0.0,0.29439425,0.3014696,0.8217411,440.93878,688.0486,728.4075,508.38065,775.8469,771.24457,759.8273,1199.173,-0.28289794921875,-0.00885009765625,0.9832763671875,1.487884521484375,-1.637420654296875,-8.052520751953125,8.030189542951147,7.732002002717975,5.9437312543213405,4.8740891209498605,0.0,0.0,0.0,0.0,0.0,0.0,0.0,0.0,0.0,0.0,0.0,0.0,91.01647,1,2.0,1.0,1.0,2.0,67.45
2025-09-03 19:53:51.119,,,,,,,,,,,,,,,,,,,,,,,,,,,,,,,,,,,,,,,,,,,,,,,,,,,,,,,,,,/muse/elements/blink
2025-09-03 19:53:51.256,0.0,1.2054459,1.0855043,1.197733,0.0,1.3079168,1.0586475,0.82000446,0.0,0.9724261,1.0061874,0.8871432,0.0,0.89017147,0.48858762,0.9380369,0.0,0.29439425,0.3014696,0.8217411,667.86914,975.78284,762.8365,526.7015,677.3393,685.2164,681.4106,869.48663,-0.39398193359375,0.066162109375,0.76934814453125,4.486083984375,-7.13287353515625,10.6768798828125,8.034767184035477,7.75083136637818,5.94028276470448,4.88104713539804,0.0,0.0,0.0,0.0,0.0,0.0,0.0,0.0,0.0,0.0,0.0,0.0,93.72318,1,2.0,1.0,1.0,2.0,67.45
2025-09-03 19:53:52.271,0.0,1.2054459,1.0855043,1.197733,0.0,1.3079168,1.0586475,0.82000446,0.0,0.9724261,1.0061874,0.8871432,0.0,0.89017147,0.48858762,0.9380369,0.0,0.29439425,0.3014696,0.8217411,726.1948,732.39026,763.81006,707.6085,809.9219,819.4805,823.7289,1343.2614,-0.25439453125,0.02667236328125,0.97576904296875,5.914154052734375,1.128997802734375,6.302947998046875,7.948249767541664,7.676368404739766,5.844152301933576,4.813450635386119,0.0,0.0,0.0,0.0,0.0,0.0,0.0,0.0,0.0,0.0,0.0,0.0,93.63791,1,2.0,1.0,1.0,2.0,67.45
2025-09-03 19:53:52.386,,,,,,,,,,,,,,,,,,,,,,,,,,,,,,,,,,,,,,,,,,,,,,,,,,,,,,,,,,/muse/elements/blink
2025-09-03 19:53:52.753,,,,,,,,,,,,,,,,,,,,,,,,,,,,,,,,,,,,,,,,,,,,,,,,,,,,,,,,,,/muse/elements/blink
2025-09-03 19:53:53.273,0.0,1.4214437,1.0855043,1.197733,0.0,1.123958,1.0586475,0.82000446,0.0,1.0041254,1.0061874,0.8871432,0.0,0.58449626,0.48858762,0.9380369,0.0,0.055166222,0.3014696,0.8217411,943.21246,686.18994,685.3934,1450.0,754.16284,760.71234,766.1112,1293.6093,-0.27850341796875,-0.05853271484375,0.98760986328125,-0.037384033203125,-4.80010986328125,-6.34033203125,7.9440383377440815,7.686713873590349,5.846685263333572,4.828160122070429,0.0,0.0,0.0,0.0,0.0,0.0,0.0,0.0,0.0,0.0,0.0,0.0,95.02697,1,2.0,1.0,1.0,2.0,67.45
2025-09-03 19:53:54.275,0.0,1.2324485,1.0855043,1.197733,0.0,1.0781606,1.0586475,0.82000446,0.0,1.0612411,1.0061874,0.8871432,0.0,0.6100215,0.48858762,0.9380369,0.0,0.12461238,0.3014696,0.8217411,401.90747,768.6779,740.09033,287.82275,775.6699,771.59863,763.456,1238.6467,-0.13653564453125,-0.09466552734375,0.982666015625,2.31781005859375,-1.92901611328125,-3.043060302734375,7.91574851584293,7.656165748754262,5.8172662899649525,4.803135684142765,0.0,0.0,0.0,0.0,0.0,0.0,0.0,0.0,0.0,0.0,0.0,0.0,94.20179,1,2.0,1.0,1.0,2.0,67.44
2025-09-03 19:53:55.283,0.0,0.6916893,1.0855043,1.197733,0.0,1.0311785,1.0586475,0.82000446,0.0,0.94033676,1.0061874,0.8871432,0.0,0.65172035,0.48858762,0.9380369,0.0,0.22581248,0.3014696,0.8217411,616.71246,743.5421,733.0098,534.66705,775.6699,773.2802,762.3939,1230.8582,-0.17877197265625,-0.0631103515625,0.96966552734375,-0.49346923828125,-0.31402587890625,-5.0244140625,7.862861502515319,7.627112986672389,5.751470328779535,4.767491118899459,0.0,0.0,0.0,0.0,0.0,0.0,0.0,0.0,0.0,0.0,0.0,0.0,92.10034,1,2.0,1.0,1.0,2.0,67.44
2025-09-03 19:53:55.738,,,,,,,,,,,,,,,,,,,,,,,,,,,,,,,,,,,,,,,,,,,,,,,,,,,,,,,,,,/muse/elements/blink
2025-09-03 19:53:56.285,0.0,0.98657906,1.0855043,1.197733,0.0,0.37412426,1.0586475,0.82000446,0.0,0.43107304,1.0061874,0.8871432,0.0,0.31264484,0.48858762,0.9380369,0.0,0.12658012,0.3014696,0.8217411,792.84015,735.311,676.3657,662.3817,722.7431,744.6927,725.6638,1034.551,-0.06298828125,-0.1259765625,1.0504150390625,-19.4696044921875,-11.940460205078125,18.639678955078125,8.053321889230622,7.828712300026226,5.97156331211406,4.942021314641299,0.0,0.0,0.0,0.0,0.0,0.0,0.0,0.0,0.0,0.0,0.0,0.0,89.584274,1,2.0,1.0,1.0,2.0,67.44
2025-09-03 19:53:56.538,,,,,,,,,,,,,,,,,,,,,,,,,,,,,,,,,,,,,,,,,,,,,,,,,,,,,,,,,,/muse/elements/blink
2025-09-03 19:53:56.985,,,,,,,,,,,,,,,,,,,,,,,,,,,,,,,,,,,,,,,,,,,,,,,,,,,,,,,,,,/muse/elements/blink
2025-09-03 19:53:57.289,0.0,0.98657906,1.0855043,1.197733,0.0,0.37412426,1.0586475,0.82000446,0.0,0.43107304,1.0061874,0.8871432,0.0,0.31264484,0.48858762,0.9380369,0.0,0.12658012,0.3014696,0.8217411,1445.4862,880.3729,907.01337,1232.0088,616.88947,581.3099,566.2638,1013.044,-0.3876953125,0.06573486328125,0.7994384765625,-2.474822998046875,19.492034912109375,-67.53799438476562,8.159095915885844,7.931587153994707,6.052221348019931,5.004490856638772,0.0,0.0,0.0,0.0,0.0,0.0,0.0,0.0,0.0,0.0,0.0,0.0,85.89788,1,2.0,1.0,1.0,2.0,67.44
2025-09-03 19:53:57.481,,,,,,,,,,,,,,,,,,,,,,,,,,,,,,,,,,,,,,,,,,,,,,,,,,,,,,,,,,/muse/elements/jaw_clench
2025-09-03 19:53:57.605,,,,,,,,,,,,,,,,,,,,,,,,,,,,,,,,,,,,,,,,,,,,,,,,,,,,,,,,,,/muse/elements/blink
2025-09-03 19:53:58.292,0.0,0.98657906,1.0855043,1.197733,0.0,0.37412426,1.0586475,0.82000446,0.0,0.43107304,1.0061874,0.8871432,0.0,0.31264484,0.48858762,0.9380369,0.0,0.12658012,0.3014696,0.8217411,397.57065,796.73444,752.56976,547.6775,747.08234,740.17883,728.496,1199.35,-0.13568115234375,-0.0499267578125,0.91448974609375,-2.071075439453125,8.007659912109375,5.8319091796875,8.157447965095487,7.9179457835634075,6.069158620031948,5.012974751448394,0.0,0.0,0.0,0.0,0.0,0.0,0.0,0.0,0.0,0.0,0.0,0.0,83.93937,1,2.0,1.0,1.0,2.0,67.44
2025-09-03 19:53:58.598,,,,,,,,,,,,,,,,,,,,,,,,,,,,,,,,,,,,,,,,,,,,,,,,,,,,,,,,,,/muse/elements/blink
2025-09-03 19:53:59.297,0.0,0.98657906,1.0855043,1.197733,0.0,0.37412426,1.0586475,0.82000446,0.0,0.43107304,1.0061874,0.8871432,0.0,0.31264484,0.48858762,0.9380369,0.0,0.12658012,0.3014696,0.8217411,663.1783,747.08234,731.59375,596.09045,765.04913,767.1733,763.63306,1290.3345,-0.1103515625,-0.03472900390625,0.9769287109375,-2.983245849609375,-3.349609375,-1.532745361328125,7.9652175571609085,7.723060343799919,5.8387812030612976,4.8294723791812695,0.0,0.0,0.0,0.0,0.0,0.0,0.0,0.0,0.0,0.0,0.0,0.0,83.95244,1,2.0,1.0,1.0,2.0,67.44
2025-09-03 19:53:59.848,,,,,,,,,,,,,,,,,,,,,,,,,,,,,,,,,,,,,,,,,,,,,,,,,,,,,,,,,,/muse/elements/blink
2025-09-03 19:54:00.297,0.0,0.98657906,1.0855043,1.197733,0.0,0.37412426,1.0586475,0.82000446,0.0,0.43107304,1.0061874,0.8871432,0.0,0.31264484,0.48858762,0.9380369,0.0,0.12658012,0.3014696,0.8217411,600.9583,638.2195,710.2637,666.71857,773.1917,796.91144,763.81006,1114.8263,0.0389404296875,0.34844970703125,1.41497802734375,27.716522216796875,8.59832763671875,-146.9342041015625,7.978218057840403,7.764899983310683,5.8756464725937585,4.879124526142622,0.0,0.0,0.0,0.0,0.0,0.0,0.0,0.0,0.0,0.0,0.0,0.0,86.238144,1,2.0,1.0,1.0,2.0,67.43
2025-09-03 19:54:00.389,,,,,,,,,,,,,,,,,,,,,,,,,,,,,,,,,,,,,,,,,,,,,,,,,,,,,,,,,,/muse/elements/jaw_clench
2025-09-03 19:54:00.856,,,,,,,,,,,,,,,,,,,,,,,,,,,,,,,,,,,,,,,,,,,,,,,,,,,,,,,,,,/muse/elements/blink
2025-09-03 19:54:00.981,,,,,,,,,,,,,,,,,,,,,,,,,,,,,,,,,,,,,,,,,,,,,,,,,,,,,,,,,,/muse/elements/blink
2025-09-03 19:54:01.297,0.0,0.98657906,1.0855043,1.197733,0.0,0.37412426,1.0586475,0.82000446,0.0,0.43107304,1.0061874,0.8871432,0.0,0.31264484,0.48858762,0.9380369,0.0,0.12658012,0.3014696,0.8217411,691.50037,768.8549,785.93665,668.7542,743.9846,743.01105,747.08234,1265.6412,-0.03863525390625,-0.1932373046875,1.0098876953125,6.74407958984375,1.637420654296875,11.17034912109375,7.866401544953866,7.679603271106025,5.751500846386763,4.804570011682522,0.0,0.0,0.0,0.0,0.0,0.0,0.0,0.0,0.0,0.0,0.0,0.0,90.14564,1,2.0,1.0,1.0,2.0,67.43
2025-09-03 19:54:02.303,0.0,0.98657906,1.0855043,1.197733,0.0,0.37412426,1.0586475,0.82000446,0.0,0.43107304,1.0061874,0.8871432,0.0,0.31264484,0.48858762,0.9380369,0.0,0.12658012,0.3014696,0.8217411,628.48376,748.764,726.0178,695.66016,775.6699,761.42035,758.5882,1229.5306,-0.1513671875,-0.098876953125,0.99261474609375,1.293487548828125,13.53302001953125,-0.904693603515625,7.866889826669528,7.67920654221205,5.764287723815655,4.823338340128269,0.0,0.0,0.0,0.0,0.0,0.0,0.0,0.0,0.0,0.0,0.0,0.0,89.88375,1,2.0,1.0,1.0,2.0,67.43
2025-09-03 19:54:03.224,,,,,,,,,,,,,,,,,,,,,,,,,,,,,,,,,,,,,,,,,,,,,,,,,,,,,,,,,,/muse/elements/blink
2025-09-03 19:54:03.310,0.0,0.5031202,1.0731229,1.197733,0.0,0.33535597,0.72091013,0.82000446,0.0,0.7445645,0.55216247,0.8871432,0.0,0.43332618,0.5208131,0.9380369,0.0,0.15437928,0.37444726,0.8217411,651.8495,741.1524,735.488,806.64716,851.16583,877.8063,911.26166,1420.4388,-0.2264404296875,-0.0455322265625,0.96490478515625,-4.127197265625,4.18701171875,7.835693359375,7.848304603867153,7.63776363159526,5.745946641871111,4.786869799489784,0.0,0.0,0.0,0.0,0.0,0.0,0.0,0.0,0.0,0.0,0.0,0.0,88.43314,1,2.0,1.0,1.0,2.0,67.43
2025-09-03 19:54:03.716,,,,,,,,,,,,,,,,,,,,,,,,,,,,,,,,,,,,,,,,,,,,,,,,,,,,,,,,,,/muse/elements/blink
2025-09-03 19:54:04.312,0.0,0.8879358,1.4442447,1.197733,0.0,0.5679078,1.0200707,0.82000446,0.0,0.74335074,1.1511874,0.8871432,0.0,0.34603155,0.76884055,0.9380369,0.0,0.22182737,0.39411625,0.8217411,692.65094,746.46277,783.901,743.27655,775.49286,769.0319,779.12164,1334.3221,-0.41107177734375,-0.10498046875,0.8992919921875,-21.211700439453125,15.005950927734375,71.17172241210938,7.897224328255013,7.665504136566292,5.806585127434852,4.820713825906587,0.0,0.0,0.0,0.0,0.0,0.0,0.0,0.0,0.0,0.0,0.0,0.0,86.90143,1,2.0,1.0,1.0,2.0,67.43
2025-09-03 19:54:04.657,,,,,,,,,,,,,,,,,,,,,,,,,,,,,,,,,,,,,,,,,,,,,,,,,,,,,,,,,,/muse/elements/blink
2025-09-03 19:54:04.966,,,,,,,,,,,,,,,,,,,,,,,,,,,,,,,,,,,,,,,,,,,,,,,,,,,,,,,,,,/muse/elements/blink
2025-09-03 19:54:05.318,0.0,1.317939,1.6374779,1.197733,0.0,0.9491747,1.346609,0.82000446,0.0,0.12960462,1.1511874,0.8871432,0.0,0.1280778,0.8697862,0.9380369,0.0,0.27465448,0.47045487,0.8217411,770.3595,727.87646,787.2642,859.928,750.7996,748.3214,737.9662,1193.951,-0.37939453125,-0.3072509765625,0.98291015625,-15.29754638671875,-3.237457275390625,27.088470458984375,7.984718308180149,7.752815010848056,5.916082302171995,4.921757623441337,0.0,0.0,0.0,0.0,0.0,0.0,0.0,0.0,0.0,0.0,0.0,0.0,87.60203,1,2.0,1.0,1.0,2.0,67.39
2025-09-03 19:54:05.990,,,,,,,,,,,,,,,,,,,,,,,,,,,,,,,,,,,,,,,,,,,,,,,,,,,,,,,,,,/muse/elements/blink
2025-09-03 19:54:06.323,0.0,1.317939,1.6374779,1.197733,0.0,0.9491747,1.346609,0.82000446,0.0,0.12960462,1.1511874,0.8871432,0.0,0.1280778,0.8697862,0.9380369,0.0,0.27465448,0.47045487,0.8217411,726.9029,707.52,737.7892,698.0498,766.9963,765.49164,774.78485,1334.1451,-0.48779296875,0.12994384765625,0.80621337890625,8.2843017578125,1.62994384765625,-15.454559326171875,7.920783921035691,7.706214624609589,5.842443315928761,4.875340342846243,0.0,0.0,0.0,0.0,0.0,0.0,0.0,0.0,0.0,0.0,0.0,0.0,88.32023,1,2.0,1.0,1.0,2.0,67.39
2025-09-03 19:54:06.699,,,,,,,,,,,,,,,,,,,,,,,,,,,,,,,,,,,,,,,,,,,,,,,,,,,,,,,,,,/muse/elements/blink
2025-09-03 19:54:07.327,0.0,1.317939,1.6374779,1.197733,0.0,0.9491747,1.346609,0.82000446,0.0,0.12960462,1.1511874,0.8871432,0.0,0.1280778,0.8697862,0.9380369,0.0,0.27465448,0.47045487,0.8217411,638.75055,734.86847,719.9994,672.38293,758.41113,761.24335,773.9883,1336.0038,-0.14697265625,-0.04534912109375,1.02972412109375,-9.271240234375,5.14404296875,34.744720458984375,7.877937200486374,7.652137424600053,5.795965000119209,4.8234604105571846,0.0,0.0,0.0,0.0,0.0,0.0,0.0,0.0,0.0,0.0,0.0,0.0,87.82885,1,2.0,1.0,1.0,2.0,67.39
2025-09-03 19:54:07.592,,,,,,,,,,,,,,,,,,,,,,,,,,,,,,,,,,,,,,,,,,,,,,,,,,,,,,,,,,/muse/elements/blink
2025-09-03 19:54:08.336,0.0,1.317939,1.6374779,1.197733,0.0,0.9491747,1.346609,0.82000446,0.0,0.12960462,1.1511874,0.8871432,0.0,0.1280778,0.8697862,0.9380369,0.0,0.27465448,0.47045487,0.8217411,731.77075,713.4499,715.7511,693.35895,777.97107,772.39514,776.9975,1242.895,-0.21881103515625,0.122802734375,0.9521484375,9.91424560546875,10.587158203125,-3.24493408203125,7.7645032544167085,7.601478196600148,5.648107193095392,4.755314593615144,0.0,0.0,0.0,0.0,0.0,0.0,0.0,0.0,0.0,0.0,0.0,0.0,86.890076,1,2.0,1.0,1.0,2.0,67.39
2025-09-03 19:54:08.941,,,,,,,,,,,,,,,,,,,,,,,,,,,,,,,,,,,,,,,,,,,,,,,,,,,,,,,,,,/muse/elements/blink
2025-09-03 19:54:09.345,0.0,1.317939,1.6374779,1.197733,0.0,0.9491747,1.346609,0.82000446,0.0,0.12960462,1.1511874,0.8871432,0.0,0.1280778,0.8697862,0.9380369,0.0,0.27465448,0.47045487,0.8217411,692.2969,761.6859,741.4179,669.8163,487.67014,468.37576,504.7519,674.68414,-0.0679931640625,-0.126953125,1.028076171875,-16.49383544921875,15.783538818359375,-13.74237060546875,7.698951434089121,7.503699783038886,5.57623822807143,4.673832582314093,0.0,0.0,0.0,0.0,0.0,0.0,0.0,0.0,0.0,0.0,0.0,0.0,89.18397,1,2.0,1.0,1.0,2.0,67.39
2025-09-03 19:54:10.206,,,,,,,,,,,,,,,,,,,,,,,,,,,,,,,,,,,,,,,,,,,,,,,,,,,,,,,,,,/muse/elements/blink
2025-09-03 19:54:10.354,0.0,1.119307,1.6374779,1.197733,0.0,0.7317702,1.346609,0.82000446,0.0,0.63603896,1.1511874,0.8871432,0.0,0.48349884,0.8697862,0.9380369,0.0,0.33645478,0.47045487,0.8217411,726.0178,741.0639,603.7905,702.3866,762.6595,774.4308,776.2009,1315.2048,-0.32684326171875,-0.02593994140625,0.9271240234375,3.7384033203125,11.895599365234375,14.2059326171875,7.70325441670839,7.517798917578618,5.574987006175047,4.681156808049019,0.0,0.0,0.0,0.0,0.0,0.0,0.0,0.0,0.0,0.0,0.0,0.0,91.535835,1,2.0,1.0,1.0,2.0,67.39
2025-09-03 19:54:11.365,0.0,1.1510954,1.6374779,1.197733,0.0,0.7561904,1.346609,0.82000446,0.0,0.59363437,1.1511874,0.8871432,0.0,0.4040861,0.8697862,0.9380369,0.0,0.3237912,0.47045487,0.8217411,593.16974,789.03436,548.65106,781.1573,777.263,779.9182,776.555,1240.7709,-0.33642578125,0.2044677734375,0.89862060546875,29.29412841796875,2.213134765625,-26.550140380859375,7.862983572944234,7.613654721884462,5.74570250101328,4.756932026798274,0.0,0.0,0.0,0.0,0.0,0.0,0.0,0.0,0.0,0.0,0.0,0.0,91.50325,1,2.0,1.0,1.0,2.0,67.37
2025-09-03 19:54:12.215,,,,,,,,,,,,,,,,,,,,,,,,,,,,,,,,,,,,,,,,,,,,,,,,,,,,,,,,,,/muse/elements/blink
2025-09-03 19:54:12.339,,,,,,,,,,,,,,,,,,,,,,,,,,,,,,,,,,,,,,,,,,,,,,,,,,,,,,,,,,/muse/elements/blink
2025-09-03 19:54:12.339,,,,,,,,,,,,,,,,,,,,,,,,,,,,,,,,,,,,,,,,,,,,,,,,,,,,,,,,,,/muse/elements/jaw_clench
2025-09-03 19:54:12.369,0.0,0.8441058,1.6374779,1.197733,0.0,0.61197037,1.346609,0.82000446,0.0,0.33742696,1.1511874,0.8871432,0.0,0.38008273,0.8697862,0.9380369,0.0,0.34495565,0.47045487,0.8217411,791.6011,789.29987,802.1333,739.6478,478.554,442.3549,505.0174,579.36273,5.4931640625E-4,0.13812255859375,1.33746337890625,-9.40582275390625,-31.32781982421875,-0.76263427734375,8.025215172972844,7.804054073385308,5.872228500584126,4.8802536776100895,0.0,0.0,0.0,0.0,0.0,0.0,0.0,0.0,0.0,0.0,0.0,0.0,92.52576,1,2.0,1.0,1.0,2.0,67.37
2025-09-03 19:54:12.722,,,,,,,,,,,,,,,,,,,,,,,,,,,,,,,,,,,,,,,,,,,,,,,,,,,,,,,,,,/muse/elements/blink
2025-09-03 19:54:12.722,,,,,,,,,,,,,,,,,,,,,,,,,,,,,,,,,,,,,,,,,,,,,,,,,,,,,,,,,,/muse/elements/jaw_clench
2025-09-03 19:54:13.375,0.0,0.8441058,1.6374779,1.197733,0.0,0.61197037,1.346609,0.82000446,0.0,0.33742696,1.1511874,0.8871432,0.0,0.38008273,0.8697862,0.9380369,0.0,0.34495565,0.47045487,0.8217411,820.89667,756.287,729.38104,694.5096,783.45844,786.29065,767.96985,1360.0775,-0.03741455078125,0.06695556640625,1.138916015625,1.562652587890625,22.5201416015625,-10.534820556640625,8.09827432467873,7.8664625801683234,5.9805965238538015,4.967411963855709,0.0,0.0,0.0,0.0,0.0,0.0,0.0,0.0,0.0,0.0,0.0,0.0,88.28772,1,2.0,1.0,1.0,2.0,67.37
2025-09-03 19:54:13.696,,,,,,,,,,,,,,,,,,,,,,,,,,,,,,,,,,,,,,,,,,,,,,,,,,,,,,,,,,/muse/elements/blink
2025-09-03 19:54:13.902,,,,,,,,,,,,,,,,,,,,,,,,,,,,,,,,,,,,,,,,,,,,,,,,,,,,,,,,,,/muse/elements/jaw_clench
2025-09-03 19:54:14.362,,,,,,,,,,,,,,,,,,,,,,,,,,,,,,,,,,,,,,,,,,,,,,,,,,,,,,,,,,/muse/elements/blink
2025-09-03 19:54:14.379,0.0,0.8441058,1.6374779,1.197733,0.0,0.61197037,1.346609,0.82000446,0.0,0.33742696,1.1511874,0.8871432,0.0,0.38008273,0.8697862,0.9380369,0.0,0.34495565,0.47045487,0.8217411,987.11163,928.0779,942.1504,1342.2877,809.0368,810.80695,773.8998,1253.5159,-0.2220458984375,-0.45855712890625,1.09783935546875,-10.310516357421875,-24.456634521484375,-45.242156982421875,8.140388622654555,7.910316381756193,5.985326752974275,4.974003767017142,0.0,0.0,0.0,0.0,0.0,0.0,0.0,0.0,0.0,0.0,0.0,0.0,85.08721,1,2.0,1.0,1.0,2.0,67.37
2025-09-03 19:54:14.840,,,,,,,,,,,,,,,,,,,,,,,,,,,,,,,,,,,,,,,,,,,,,,,,,,,,,,,,,,/muse/elements/blink
2025-09-03 19:54:15.205,,,,,,,,,,,,,,,,,,,,,,,,,,,,,,,,,,,,,,,,,,,,,,,,,,,,,,,,,,/muse/elements/blink
2025-09-03 19:54:15.382,0.0,0.8441058,1.6374779,1.197733,0.0,0.61197037,1.346609,0.82000446,0.0,0.33742696,1.1511874,0.8871432,0.0,0.38008273,0.8697862,0.9380369,0.0,0.34495565,0.47045487,0.8217411,890.6397,764.16406,743.8076,714.15796,763.456,757.7916,767.52734,1252.8077,-0.00128173828125,-0.19964599609375,0.9473876953125,-5.03936767578125,-8.3740234375,12.08251953125,8.113899339579906,7.834022363684047,5.997045514150156,4.950138998164175,0.0,0.0,0.0,0.0,0.0,0.0,0.0,0.0,0.0,0.0,0.0,0.0,82.44491,1,2.0,1.0,1.0,4.0,67.37
2025-09-03 19:54:15.943,,,,,,,,,,,,,,,,,,,,,,,,,,,,,,,,,,,,,,,,,,,,,,,,,,,,,,,,,,/muse/elements/blink
2025-09-03 19:54:16.232,,,,,,,,,,,,,,,,,,,,,,,,,,,,,,,,,,,,,,,,,,,,,,,,,,,,,,,,,,/muse/elements/blink
2025-09-03 19:54:16.388,0.0,0.8441058,1.6374779,1.197733,0.0,0.61197037,1.346609,0.82000446,0.0,0.33742696,1.1511874,0.8871432,0.0,0.38008273,0.8697862,0.9380369,0.0,0.34495565,0.47045487,0.8217411,882.32007,680.7026,723.6282,981.62427,773.1917,782.39636,761.9514,1368.6626,-0.28607177734375,0.111328125,0.8668212890625,-3.641204833984375,4.523468017578125,17.906951904296875,8.09027871158477,7.798072622368452,5.970251055003219,4.908238323438953,0.0,0.0,0.0,0.0,0.0,0.0,0.0,0.0,0.0,0.0,0.0,0.0,83.0048,1,2.0,1.0,1.0,4.0,67.36
2025-09-03 19:54:17.208,,,,,,,,,,,,,,,,,,,,,,,,,,,,,,,,,,,,,,,,,,,,,,,,,,,,,,,,,,/muse/elements/blink
2025-09-03 19:54:17.391,0.0,0.8441058,1.6374779,1.197733,0.0,0.61197037,1.346609,0.82000446,0.0,0.33742696,1.1511874,0.8871432,0.0,0.38008273,0.8697862,0.9380369,0.0,0.34495565,0.47045487,0.8217411,641.58276,744.6927,697.8728,558.2097,477.13788,444.83307,510.4163,512.8945,-0.11468505859375,-0.1142578125,1.011962890625,3.0206298828125,-0.770111083984375,-31.98577880859375,8.114936938225688,7.829719381064779,6.013952268554943,4.958653410581027,0.0,0.0,0.0,0.0,0.0,0.0,0.0,0.0,0.0,0.0,0.0,0.0,84.09091,1,2.0,1.0,1.0,2.0,67.36
2025-09-03 19:54:18.406,0.0,0.8441058,1.6374779,1.197733,0.0,0.61197037,1.346609,0.82000446,0.0,0.33742696,1.1511874,0.8871432,0.0,0.38008273,0.8697862,0.9380369,0.0,0.34495565,0.47045487,0.8217411,629.6344,736.9041,761.5974,589.18695,774.3423,778.0596,756.11,1228.911,-0.12689208984375,-0.3311767578125,0.9464111328125,-6.362762451171875,0.515899658203125,-0.396270751953125,7.9758071668693225,7.699653339055384,5.847631309157666,4.830998259542713,0.0,0.0,0.0,0.0,0.0,0.0,0.0,0.0,0.0,0.0,0.0,0.0,84.09091,1,2.0,1.0,1.0,2.0,67.36
2025-09-03 19:54:18.739,,,,,,,,,,,,,,,,,,,,,,,,,,,,,,,,,,,,,,,,,,,,,,,,,,,,,,,,,,/muse/elements/blink
2025-09-03 19:54:19.407,0.0,0.8441058,1.6374779,1.197733,0.0,0.61197037,1.346609,0.82000446,0.0,0.33742696,1.1511874,0.8871432,0.0,0.38008273,0.8697862,0.9380369,0.0,0.34495565,0.47045487,0.8217411,751.0651,745.3122,739.6478,753.3663,769.917,778.67914,768.05835,1232.9823,-0.086181640625,-0.25726318359375,0.94647216796875,-0.2691650390625,-3.03558349609375,-6.3702392578125,7.944496101852514,7.687537848985528,5.829992132179386,4.838597143742699,0.0,0.0,0.0,0.0,0.0,0.0,0.0,0.0,0.0,0.0,0.0,0.0,86.810776,1,2.0,1.0,1.0,2.0,67.36
2025-09-03 19:54:20.410,0.0,0.8441058,0.8231079,1.197733,0.0,0.61197037,0.66810435,0.82000446,0.0,0.33742696,0.47828698,0.8871432,0.0,0.38008273,0.32968593,0.9380369,0.0,0.34495565,-0.02466252,0.8217411,725.13275,739.5593,716.8132,648.57477,783.45844,789.29987,765.40314,1217.0513,-0.0557861328125,-0.22271728515625,0.96685791015625,-0.22430419921875,2.7215576171875,2.7813720703125,7.822120496864793,7.591956703144744,5.690160455856758,4.746525522733233,0.0,0.0,0.0,0.0,0.0,0.0,0.0,0.0,0.0,0.0,0.0,0.0,88.47657,1,2.0,1.0,1.0,2.0,67.36
2025-09-03 19:54:21.075,,,,,,,,,,,,,,,,,,,,,,,,,,,,,,,,,,,,,,,,,,,,,,,,,,,,,,,,,,/muse/elements/blink
2025-09-03 19:54:21.417,0.0,0.9847455,0.79813737,1.197733,0.0,0.87738806,0.6070026,0.82000446,0.0,1.0316223,0.5534262,0.8871432,0.0,0.4406624,0.29984698,0.9380369,0.0,0.0016351072,0.04025582,0.8217411,593.9663,707.25446,843.37726,730.3546,765.04913,762.3939,759.2962,1257.7642,-0.30938720703125,0.181640625,0.95404052734375,-23.125762939453125,4.38140869140625,66.93984985351562,7.912757790334502,7.678504637245786,5.807470138044489,4.833378632906563,0.0,0.0,0.0,0.0,0.0,0.0,0.0,0.0,0.0,0.0,0.0,0.0,88.20305,1,2.0,1.0,1.0,2.0,67.36
2025-09-03 19:54:21.935,,,,,,,,,,,,,,,,,,,,,,,,,,,,,,,,,,,,,,,,,,,,,,,,,,,,,,,,,,/muse/elements/blink
2025-09-03 19:54:22.419,0.0,0.9453614,0.7787209,1.197733,0.0,0.74298304,0.5095936,0.82000446,0.0,0.78046626,0.47320095,0.8871432,0.0,0.38926372,0.2603057,0.9380369,0.0,-0.09834203,0.09020656,0.8217411,799.4781,696.27966,763.0135,676.8968,741.5065,730.8857,735.134,1223.0697,-0.3709716796875,-0.0948486328125,0.90069580078125,-10.4974365234375,-3.850555419921875,18.55743408203125,7.914161600267029,7.653083470424147,5.807561690866176,4.803746036287342,0.0,0.0,0.0,0.0,0.0,0.0,0.0,0.0,0.0,0.0,0.0,0.0,88.098755,1,2.0,1.0,4.0,2.0,67.36
2025-09-03 19:54:22.823,,,,,,,,,,,,,,,,,,,,,,,,,,,,,,,,,,,,,,,,,,,,,,,,,,,,,,,,,,/muse/elements/blink
2025-09-03 19:54:23.425,0.0,0.9453614,0.7787209,1.197733,0.0,0.74298304,0.5095936,0.82000446,0.0,0.78046626,0.47320095,0.8871432,0.0,0.38926372,0.2603057,0.9380369,0.0,-0.09834203,0.09020656,0.8217411,693.6245,736.01904,724.1592,806.64716,822.31274,839.04047,817.71045,1254.5779,0.1158447265625,-0.23846435546875,1.02056884765625,-6.287994384765625,-8.50860595703125,4.23187255859375,7.972602818110293,7.675361323701214,5.872411606227499,4.8345688195884895,0.0,0.0,0.0,0.0,0.0,0.0,0.0,0.0,0.0,0.0,0.0,0.0,89.440506,1,2.0,1.0,1.0,2.0,67.36
2025-09-03 19:54:24.057,,,,,,,,,,,,,,,,,,,,,,,,,,,,,,,,,,,,,,,,,,,,,,,,,,,,,,,,,,/muse/elements/blink
2025-09-03 19:54:24.432,0.0,0.8345836,0.7787209,1.197733,0.0,1.1379855,0.5095936,0.82000446,0.0,1.2905246,0.47320095,0.8871432,0.0,0.49364027,0.2603057,0.9380369,0.0,0.05240202,0.09020656,0.8217411,677.0738,761.5089,719.7339,644.592,623.97,582.8145,587.5054,1132.0851,-0.1666259765625,0.1317138671875,1.00323486328125,-23.97064208984375,-60.509796142578125,84.89913940429688,7.976600624657273,7.6974865889421356,5.87372386333834,4.844822735617385,0.0,0.0,0.0,0.0,0.0,0.0,0.0,0.0,0.0,0.0,0.0,0.0,88.63574,1,2.0,1.0,1.0,2.0,67.36
2025-09-03 19:54:25.073,,,,,,,,,,,,,,,,,,,,,,,,,,,,,,,,,,,,,,,,,,,,,,,,,,,,,,,,,,/muse/elements/blink
2025-09-03 19:54:25.438,0.0,0.8345836,0.7787209,1.197733,0.0,1.1379855,0.5095936,0.82000446,0.0,1.2905246,0.47320095,0.8871432,0.0,0.49364027,0.2603057,0.9380369,0.0,0.05240202,0.09020656,0.8217411,665.3024,722.5661,716.4591,654.15063,619.9872,559.97986,555.73157,1109.2505,-0.146728515625,0.21258544921875,1.00213623046875,-5.84686279296875,19.3499755859375,26.57257080078125,8.003883365519872,7.723090861407147,5.915777126099707,4.876805187993229,0.0,0.0,0.0,0.0,0.0,0.0,0.0,0.0,0.0,0.0,0.0,0.0,87.23725,1,2.0,1.0,1.0,2.0,67.36
2025-09-03 19:54:25.458,,,,,,,,,,,,,,,,,,,,,,,,,,,,,,,,,,,,,,,,,,,,,,,,,,,,,,,,,,/muse/elements/blink
2025-09-03 19:54:25.700,,,,,,,,,,,,,,,,,,,,,,,,,,,,,,,,,,,,,,,,,,,,,,,,,,,,,,,,,,/muse/elements/blink
2025-09-03 19:54:26.053,,,,,,,,,,,,,,,,,,,,,,,,,,,,,,,,,,,,,,,,,,,,,,,,,,,,,,,,,,/muse/elements/blink
2025-09-03 19:54:26.444,0.0,0.8345836,0.7787209,1.197733,0.0,1.1379855,0.5095936,0.82000446,0.0,1.2905246,0.47320095,0.8871432,0.0,0.49364027,0.2603057,0.9380369,0.0,0.05240202,0.09020656,0.8217411,691.9429,744.4271,745.93176,578.21216,835.67725,885.68335,857.80383,1256.0825,-0.5750732421875,0.108642578125,0.82940673828125,-0.16448974609375,-1.742095947265625,4.71038818359375,7.973548863934387,7.697395036120449,5.873968004196171,4.854466299501705,0.0,0.0,0.0,0.0,0.0,0.0,0.0,0.0,0.0,0.0,0.0,0.0,86.75061,1,2.0,1.0,1.0,4.0,67.36
2025-09-03 19:54:26.692,,,,,,,,,,,,,,,,,,,,,,,,,,,,,,,,,,,,,,,,,,,,,,,,,,,,,,,,,,/muse/elements/blink
2025-09-03 19:54:27.309,,,,,,,,,,,,,,,,,,,,,,,,,,,,,,,,,,,,,,,,,,,,,,,,,,,,,,,,,,/muse/elements/blink
2025-09-03 19:54:27.449,0.0,1.2525886,0.7787209,1.197733,0.0,0.453214,0.5095936,0.82000446,0.0,0.3655017,0.47320095,0.8871432,0.0,0.23107897,0.2603057,0.9380369,0.0,-0.17657414,0.09020656,0.8217411,739.9133,740.9754,734.86847,794.9643,608.3928,543.34064,536.5257,1198.6418,-0.62603759765625,0.14508056640625,0.9832763671875,0.351409912109375,16.680755615234375,12.942352294921875,8.02133943685478,7.781165867963665,5.9469050854731424,4.956181484395489,0.0,0.0,0.0,0.0,0.0,0.0,0.0,0.0,0.0,0.0,0.0,0.0,86.89684,1,2.0,1.0,1.0,4.0,67.36
2025-09-03 19:54:27.566,,,,,,,,,,,,,,,,,,,,,,,,,,,,,,,,,,,,,,,,,,,,,,,,,,,,,,,,,,/muse/elements/blink
2025-09-03 19:54:27.949,,,,,,,,,,,,,,,,,,,,,,,,,,,,,,,,,,,,,,,,,,,,,,,,,,,,,,,,,,/muse/elements/blink
2025-09-03 19:54:28.429,,,,,,,,,,,,,,,,,,,,,,,,,,,,,,,,,,,,,,,,,,,,,,,,,,,,,,,,,,/muse/elements/blink
2025-09-03 19:54:28.450,0.0,1.2863091,1.3172632,1.197733,0.0,0.48668402,1.5756899,0.82000446,0.0,0.23808374,1.0641313,0.8871432,0.0,0.28343046,0.5536092,0.9380369,0.0,-0.063752666,0.24632856,0.8217411,465.1895,734.60297,710.0867,410.75812,663.62085,656.80585,627.95276,1158.991,-0.44427490234375,0.1929931640625,1.00518798828125,-18.243408203125,-3.132781982421875,23.52203369140625,7.926917960088692,7.681739503612045,5.830938178003481,4.850407457740267,0.0,0.0,0.0,0.0,0.0,0.0,0.0,0.0,0.0,0.0,0.0,0.0,89.25246,1,2.0,1.0,1.0,4.0,67.34
2025-09-03 19:54:28.677,,,,,,,,,,,,,,,,,,,,,,,,,,,,,,,,,,,,,,,,,,,,,,,,,,,,,,,,,,/muse/elements/blink
2025-09-03 19:54:29.067,,,,,,,,,,,,,,,,,,,,,,,,,,,,,,,,,,,,,,,,,,,,,,,,,,,,,,,,,,/muse/elements/blink
2025-09-03 19:54:29.294,,,,,,,,,,,,,,,,,,,,,,,,,,,,,,,,,,,,,,,,,,,,,,,,,,,,,,,,,,/muse/elements/blink
2025-09-03 19:54:29.451,0.0,1.333283,1.3709235,1.197733,0.0,0.57092893,1.5715429,0.82000446,0.0,0.10937728,1.0246438,0.8871432,0.0,0.3604553,0.54608357,0.9380369,0.0,0.041423053,0.27177688,0.8217411,756.1985,707.25446,728.496,783.547,790.716,798.6816,798.9471,1307.1508,-0.18145751953125,-0.19696044921875,1.03338623046875,28.867950439453125,9.151611328125,13.876953125,8.079750137090814,7.861915456691224,6.024389290227213,5.027714755739932,0.0,0.0,0.0,0.0,0.0,0.0,0.0,0.0,0.0,0.0,0.0,0.0,89.96071,1,2.0,1.0,1.0,4.0,67.34
2025-09-03 19:54:29.570,,,,,,,,,,,,,,,,,,,,,,,,,,,,,,,,,,,,,,,,,,,,,,,,,,,,,,,,,,/muse/elements/blink
2025-09-03 19:54:30.116,,,,,,,,,,,,,,,,,,,,,,,,,,,,,,,,,,,,,,,,,,,,,,,,,,,,,,,,,,/muse/elements/blink
2025-09-03 19:54:30.452,,,,,,,,,,,,,,,,,,,,,,,,,,,,,,,,,,,,,,,,,,,,,,,,,,,,,,,,,,/muse/elements/jaw_clench
2025-09-03 19:54:30.455,0.0,1.333283,1.3709235,1.197733,0.0,0.57092893,1.5715429,0.82000446,0.0,0.10937728,1.0246438,0.8871432,0.0,0.3604553,0.54608357,0.9380369,0.0,0.041423053,0.27177688,0.8217411,840.6336,754.9594,744.5157,914.97894,786.29065,796.99994,833.9071,1278.3861,-0.29083251953125,-0.31640625,0.99249267578125,-2.87109375,6.736602783203125,16.807861328125,8.095436187206447,7.894966025320077,5.999822616407982,5.00668812435925,0.0,0.0,0.0,0.0,0.0,0.0,0.0,0.0,0.0,0.0,0.0,0.0,89.786316,1,2.0,1.0,1.0,2.0,67.34
2025-09-03 19:54:30.812,,,,,,,,,,,,,,,,,,,,,,,,,,,,,,,,,,,,,,,,,,,,,,,,,,,,,,,,,,/muse/elements/blink
2025-09-03 19:54:31.198,,,,,,,,,,,,,,,,,,,,,,,,,,,,,,,,,,,,,,,,,,,,,,,,,,,,,,,,,,/muse/elements/blink
2025-09-03 19:54:31.463,0.0,1.333283,1.3709235,1.197733,0.0,0.57092893,1.5715429,0.82000446,0.0,0.10937728,1.0246438,0.8871432,0.0,0.3604553,0.54608357,0.9380369,0.0,0.041423053,0.27177688,0.8217411,718.8488,766.9963,759.0307,655.6553,744.3386,740.17883,736.01904,1144.653,0.6968994140625,-0.04107666015625,0.88336181640625,-11.20025634765625,-54.849853515625,11.237640380859375,7.957191426459719,7.725196576305939,5.844762654078154,4.856114250292063,0.0,0.0,0.0,0.0,0.0,0.0,0.0,0.0,0.0,0.0,0.0,0.0,89.59385,1,2.0,1.0,1.0,2.0,67.34
2025-09-03 19:54:32.228,,,,,,,,,,,,,,,,,,,,,,,,,,,,,,,,,,,,,,,,,,,,,,,,,,,,,,,,,,/muse/elements/blink
2025-09-03 19:54:32.475,0.0,1.333283,1.3709235,1.197733,0.0,0.57092893,1.5715429,0.82000446,0.0,0.10937728,1.0246438,0.8871432,0.0,0.3604553,0.54608357,0.9380369,0.0,0.041423053,0.27177688,0.8217411,546.5269,693.713,744.2501,973.9242,746.90533,741.3294,721.32697,1129.9609,0.11224365234375,-0.06658935546875,0.60064697265625,-2.572021484375,-4.299163818359375,-16.172332763671875,7.556067997043606,7.423346923205303,5.368626946093507,4.562901080037193,0.0,0.0,0.0,0.0,0.0,0.0,0.0,0.0,0.0,0.0,0.0,0.0,92.06744,1,2.0,1.0,1.0,2.0,67.34
2025-09-03 19:54:33.290,,,,,,,,,,,,,,,,,,,,,,,,,,,,,,,,,,,,,,,,,,,,,,,,,,,,,,,,,,/muse/elements/blink
2025-09-03 19:54:33.488,0.0,1.333283,1.3709235,1.197733,0.0,0.57092893,1.5715429,0.82000446,0.0,0.10937728,1.0246438,0.8871432,0.0,0.3604553,0.54608357,0.9380369,0.0,0.041423053,0.27177688,0.8217411,1450.0,682.11865,689.19916,1450.0,748.1444,738.85126,742.2145,1159.6106,0.9801025390625,-0.09197998046875,0.670166015625,0.112152099609375,-6.407623291015625,-8.134765625,7.515601649858141,7.360450134706626,5.325444531864673,4.513645661969816,0.0,0.0,0.0,0.0,0.0,0.0,0.0,0.0,0.0,0.0,0.0,0.0,94.269356,1,2.0,1.0,1.0,2.0,67.34
2025-09-03 19:54:34.492,0.0,1.333283,1.3709235,1.197733,0.0,0.57092893,1.5715429,0.82000446,0.0,0.10937728,1.0246438,0.8871432,0.0,0.3604553,0.54608357,0.9380369,0.0,0.041423053,0.27177688,0.8217411,357.12323,760.88934,697.25323,196.57266,724.0707,726.4603,714.9545,1122.7034,0.04046630859375,-0.0732421875,0.60223388671875,2.474822998046875,11.237640380859375,-4.284210205078125,7.336921059533176,7.2670052213718614,5.041722337457979,4.3725017285363466,0.0,0.0,0.0,0.0,0.0,0.0,0.0,0.0,0.0,0.0,0.0,0.0,97.67886,1,2.0,1.0,1.0,2.0,67.34
2025-09-03 19:54:34.552,,,,,,,,,,,,,,,,,,,,,,,,,,,,,,,,,,,,,,,,,,,,,,,,,,,,,,,,,,/muse/elements/blink
2025-09-03 19:54:35.060,,,,,,,,,,,,,,,,,,,,,,,,,,,,,,,,,,,,,,,,,,,,,,,,,,,,,,,,,,/muse/elements/blink
2025-09-03 19:54:35.493,0.0,1.333283,1.3709235,1.197733,0.0,0.57092893,1.5715429,0.82000446,0.0,0.10937728,1.0246438,0.8871432,0.0,0.3604553,0.54608357,0.9380369,0.0,0.041423053,0.27177688,0.8217411,716.7247,775.40436,792.4861,232.68327,763.54456,775.7584,791.07,1315.3818,0.95025634765625,-0.0765380859375,0.73699951171875,-6.44500732421875,-29.525909423828125,-5.0244140625,7.5154795794292255,7.344855637412679,5.199437331616718,4.443851894237417,0.0,0.0,0.0,0.0,0.0,0.0,0.0,0.0,0.0,0.0,0.0,0.0,98.119354,1,2.0,1.0,1.0,2.0,67.34
2025-09-03 19:54:36.031,,,,,,,,,,,,,,,,,,,,,,,,,,,,,,,,,,,,,,,,,,,,,,,,,,,,,,,,,,/muse/elements/blink
2025-09-03 19:54:36.507,0.0,1.333283,1.3709235,1.197733,0.0,0.57092893,1.5715429,0.82000446,0.0,0.10937728,1.0246438,0.8871432,0.0,0.3604553,0.54608357,0.9380369,0.0,0.041423053,0.27177688,0.8217411,376.41763,743.8076,601.4893,470.14587,758.49963,754.25134,750.18005,1274.4918,-0.29071044921875,0.17401123046875,0.5987548828125,-37.197113037109375,21.6827392578125,82.50656127929688,7.561225472665284,7.416266838328207,5.174351858474597,4.444248623131393,0.0,0.0,0.0,0.0,0.0,0.0,0.0,0.0,0.0,0.0,0.0,0.0,98.119354,1,2.0,1.0,1.0,2.0,67.34
2025-09-03 19:54:37.040,,,,,,,,,,,,,,,,,,,,,,,,,,,,,,,,,,,,,,,,,,,,,,,,,,,,,,,,,,/muse/elements/blink
2025-09-03 19:54:37.405,,,,,,,,,,,,,,,,,,,,,,,,,,,,,,,,,,,,,,,,,,,,,,,,,,,,,,,,,,/muse/elements/blink
2025-09-03 19:54:37.509,0.0,1.333283,1.3709235,1.197733,0.0,0.57092893,1.5715429,0.82000446,0.0,0.10937728,1.0246438,0.8871432,0.0,0.3604553,0.54608357,0.9380369,0.0,0.041423053,0.27177688,0.8217411,535.7291,729.20404,665.568,784.6976,603.08246,604.23303,599.63074,1018.4429,0.87579345703125,-0.13128662109375,0.92510986328125,0.471038818359375,-27.731475830078125,-10.041351318359375,7.7512891304866125,7.482825739694347,5.361974107717617,4.510288725174642,0.0,0.0,0.0,0.0,0.0,0.0,0.0,0.0,0.0,0.0,0.0,0.0,98.119354,1,2.0,1.0,1.0,2.0,67.34
2025-09-03 19:54:38.517,0.0,1.333283,1.3709235,1.197733,0.0,0.57092893,1.5715429,0.82000446,0.0,0.10937728,1.0246438,0.8871432,0.0,0.3604553,0.54608357,0.9380369,0.0,0.041423053,0.27177688,0.8217411,376.86017,756.3755,741.949,584.2306,624.147,606.88824,624.50104,1001.09564,0.55010986328125,-0.1173095703125,1.0888671875,-6.95343017578125,-10.011444091796875,-1.876678466796875,7.513587487781036,7.309180554562144,5.091313449204874,4.346042963068927,0.0,0.0,0.0,0.0,0.0,0.0,0.0,0.0,0.0,0.0,0.0,0.0,98.119354,1,2.0,1.0,1.0,2.0,67.34
2025-09-03 19:54:39.521,0.0,1.333283,1.3709235,1.197733,0.0,0.57092893,1.5715429,0.82000446,0.0,0.10937728,1.0246438,0.8871432,0.0,0.3604553,0.54608357,0.9380369,0.0,0.041423053,0.27177688,0.8217411,676.8968,752.74677,753.10077,664.24036,739.7363,749.2065,748.8525,1161.3807,0.53271484375,-0.07708740234375,0.6943359375,-3.9776611328125,1.614990234375,-2.056121826171875,7.367408149154805,7.22882769472856,4.870854254583602,4.224277710225783,0.0,0.0,0.0,0.0,0.0,0.0,0.0,0.0,0.0,0.0,0.0,0.0,98.119354,1,2.0,1.0,1.0,2.0,67.33
2025-09-03 19:54:40.533,0.0,1.3799913,1.3709235,1.197733,0.0,0.5625156,1.5715429,0.82000446,0.0,0.53490156,1.0246438,0.8871432,0.0,0.06545099,0.54608357,0.9380369,0.0,-0.5926006,0.27177688,0.8217411,742.65704,740.6214,730.5317,676.9853,767.79285,770.97906,765.40314,1298.0345,0.31573486328125,-0.09930419921875,0.8189697265625,3.745880126953125,45.81787109375,2.100982666015625,7.440436783253463,7.315619769687433,4.90591898528956,4.279087332808812,0.0,0.0,0.0,0.0,0.0,0.0,0.0,0.0,0.0,0.0,0.0,0.0,93.00493,1,2.0,1.0,1.0,2.0,67.33
2025-09-03 19:54:41.410,,,,,,,,,,,,,,,,,,,,,,,,,,,,,,,,,,,,,,,,,,,,,,,,,,,,,,,,,,/muse/elements/blink
2025-09-03 19:54:41.538,0.0,1.0511726,1.1710694,1.197733,0.0,0.5948406,0.38912737,0.82000446,0.0,0.66037166,0.66731554,0.8871432,0.0,0.023492083,0.51500064,0.9380369,0.0,-0.5994046,-0.18540838,0.8217411,949.67346,750.6226,755.4904,1300.9552,753.98584,748.4099,735.57654,1232.8053,-0.0762939453125,-0.102294921875,0.98345947265625,0.530853271484375,9.712371826171875,3.760833740234375,7.766670004529957,7.6306530291109365,5.2807667548816255,4.587437236249196,0.0,0.0,0.0,0.0,0.0,0.0,0.0,0.0,0.0,0.0,0.0,0.0,87.35047,1,2.0,1.0,1.0,2.0,67.33
2025-09-03 19:54:42.545,0.0,0.93453383,1.1710694,1.197733,0.0,0.5622305,0.38912737,0.82000446,0.0,0.6625472,0.66731554,0.8871432,0.0,0.16194728,0.51500064,0.9380369,0.0,-0.16668239,-0.18540838,0.8217411,970.738,625.8286,633.6172,860.1935,757.17206,781.2458,789.03436,1314.1427,-0.10552978515625,-0.00421142578125,0.98638916015625,-0.1495361328125,10.0787353515625,91.49368286132812,7.89704122261164,7.722388956440884,5.437169491929524,4.679875068545407,0.0,0.0,0.0,0.0,0.0,0.0,0.0,0.0,0.0,0.0,0.0,0.0,82.86253,1,2.0,1.0,1.0,2.0,67.33
2025-09-03 19:54:43.037,,,,,,,,,,,,,,,,,,,,,,,,,,,,,,,,,,,,,,,,,,,,,,,,,,,,,,,,,,/muse/elements/blink
2025-09-03 19:54:43.551,0.0,1.0752654,1.1710694,1.197733,0.0,0.75934774,0.38912737,0.82000446,0.0,0.6539342,0.66731554,0.8871432,0.0,0.33426815,0.51500064,0.9380369,0.0,0.012482956,-0.18540838,0.8217411,368.45206,722.9201,748.3214,234.4534,758.9422,771.59863,771.33307,1270.686,-0.39654541015625,0.03643798828125,0.93475341796875,21.301422119140625,12.568511962890625,-52.80120849609375,8.008399971389743,7.828315571132251,5.587407672317193,4.809513864053597,0.0,0.0,0.0,0.0,0.0,0.0,0.0,0.0,0.0,0.0,0.0,0.0,81.54692,1,2.0,1.0,1.0,2.0,67.33
2025-09-03 19:54:44.044,,,,,,,,,,,,,,,,,,,,,,,,,,,,,,,,,,,,,,,,,,,,,,,,,,,,,,,,,,/muse/elements/blink
2025-09-03 19:54:44.557,0.0,1.0752654,1.1710694,1.197733,0.0,0.75934774,0.38912737,0.82000446,0.0,0.6539342,0.66731554,0.8871432,0.0,0.33426815,0.51500064,0.9380369,0.0,0.012482956,-0.18540838,0.8217411,513.16,755.0479,842.66925,348.3611,762.1284,779.8297,767.61584,1263.5171,-0.282470703125,-0.5711669921875,1.0345458984375,-5.1739501953125,-16.785430908203125,43.492584228515625,8.026344324440311,7.838874663233436,5.616765610471354,4.8220566006246575,0.0,0.0,0.0,0.0,0.0,0.0,0.0,0.0,0.0,0.0,0.0,0.0,83.65744,1,2.0,1.0,1.0,2.0,67.33
2025-09-03 19:54:45.161,,,,,,,,,,,,,,,,,,,,,,,,,,,,,,,,,,,,,,,,,,,,,,,,,,,,,,,,,,/muse/elements/blink
2025-09-03 19:54:45.394,,,,,,,,,,,,,,,,,,,,,,,,,,,,,,,,,,,,,,,,,,,,,,,,,,,,,,,,,,/muse/elements/blink
2025-09-03 19:54:45.560,0.0,1.0752654,1.1710694,1.197733,0.0,0.75934774,0.38912737,0.82000446,0.0,0.6539342,0.66731554,0.8871432,0.0,0.33426815,0.51500064,0.9380369,0.0,0.012482956,-0.18540838,0.8217411,709.4671,739.5593,743.8076,514.39905,781.51135,778.0596,765.31464,1212.8029,-0.1978759765625,-0.00128173828125,1.05914306640625,-3.461761474609375,-9.88433837890625,12.433929443359375,7.978736857163293,7.790321150132322,5.593724817013566,4.808750923872875,0.0,0.0,0.0,0.0,0.0,0.0,0.0,0.0,0.0,0.0,0.0,0.0,87.00416,1,2.0,1.0,4.0,2.0,67.31
2025-09-03 19:54:46.183,,,,,,,,,,,,,,,,,,,,,,,,,,,,,,,,,,,,,,,,,,,,,,,,,,,,,,,,,,/muse/elements/blink
2025-09-03 19:54:46.562,0.0,1.0752654,1.1710694,1.197733,0.0,0.75934774,0.38912737,0.82000446,0.0,0.6539342,0.66731554,0.8871432,0.0,0.33426815,0.51500064,0.9380369,0.0,0.012482956,-0.18540838,0.8217411,471.03094,730.0891,672.20593,633.4401,751.3306,753.98584,761.9514,1258.7377,-0.5789794921875,-0.00274658203125,0.94097900390625,4.90478515625,-2.22808837890625,15.5218505859375,7.995460505924707,7.78772715351787,5.63611377345445,4.823490928164413,0.0,0.0,0.0,0.0,0.0,0.0,0.0,0.0,0.0,0.0,0.0,0.0,92.17334,1,2.0,1.0,4.0,2.0,67.31
2025-09-03 19:54:47.034,,,,,,,,,,,,,,,,,,,,,,,,,,,,,,,,,,,,,,,,,,,,,,,,,,,,,,,,,,/muse/elements/blink
2025-09-03 19:54:47.520,,,,,,,,,,,,,,,,,,,,,,,,,,,,,,,,,,,,,,,,,,,,,,,,,,,,,,,,,,/muse/elements/blink
2025-09-03 19:54:47.568,0.0,1.0554633,1.1710694,1.197733,0.0,1.0232239,0.38912737,0.82000446,0.0,1.2127486,0.66731554,0.8871432,0.0,0.53294307,0.51500064,0.9380369,0.0,0.3909645,-0.18540838,0.8217411,634.50226,743.5421,730.7972,670.0818,876.5672,921.70544,917.63416,1450.0,-0.2301025390625,-0.11663818359375,0.99554443359375,4.50103759765625,-49.90020751953125,9.45068359375,8.034767184035477,7.800117302052786,5.6924187587916935,4.84524998211859,0.0,0.0,0.0,0.0,0.0,0.0,0.0,0.0,0.0,0.0,0.0,0.0,98.0102,1,2.0,1.0,1.0,2.0,67.31
2025-09-03 19:54:48.521,,,,,,,,,,,,,,,,,,,,,,,,,,,,,,,,,,,,,,,,,,,,,,,,,,,,,,,,,,/muse/elements/blink
2025-09-03 19:54:48.573,0.0,1.3175945,1.1710694,1.197733,0.0,1.1958755,0.38912737,0.82000446,0.0,1.1094794,0.66731554,0.8871432,0.0,0.45629817,0.51500064,0.9380369,0.0,0.29884374,-0.18540838,0.8217411,860.90155,728.14197,747.5249,754.6939,531.92334,538.91534,595.82495,551.8373,-0.143798828125,0.424560546875,1.18524169921875,-12.299346923828125,-7.3870849609375,65.78094482421875,8.102455236869083,7.882820017642992,5.7954156831890895,4.9592637627256035,0.0,0.0,0.0,0.0,0.0,0.0,0.0,0.0,0.0,0.0,0.0,0.0,101.62606,1,2.0,1.0,1.0,2.0,67.31
2025-09-03 19:54:49.026,,,,,,,,,,,,,,,,,,,,,,,,,,,,,,,,,,,,,,,,,,,,,,,,,,,,,,,,,,/muse/elements/blink
2025-09-03 19:54:49.549,,,,,,,,,,,,,,,,,,,,,,,,,,,,,,,,,,,,,,,,,,,,,,,,,,,,,,,,,,/muse/elements/blink
2025-09-03 19:54:49.582,0.0,1.5003964,1.1710694,1.197733,0.0,1.2364241,0.38912737,0.82000446,0.0,0.90593463,0.66731554,0.8871432,0.0,0.5123363,0.51500064,0.9380369,0.0,0.31066704,-0.18540838,0.8217411,830.8979,727.1684,788.76886,895.7731,506.345,401.73044,403.50058,1018.26587,-0.2415771484375,-0.404541015625,1.01568603515625,62.663116455078125,-0.710296630859375,-110.52963256835938,8.33002503397468,8.068244999165534,6.031133681424791,5.111546622797606,0.0,0.0,0.0,0.0,0.0,0.0,0.0,0.0,0.0,0.0,0.0,0.0,102.48959,1,2.0,1.0,4.0,2.0,67.31
2025-09-03 19:54:49.651,,,,,,,,,,,,,,,,,,,,,,,,,,,,,,,,,,,,,,,,,,,,,,,,,,,,,,,,,,/muse/elements/blink
2025-09-03 19:54:49.801,,,,,,,,,,,,,,,,,,,,,,,,,,,,,,,,,,,,,,,,,,,,,,,,,,,,,,,,,,/muse/elements/jaw_clench
2025-09-03 19:54:50.040,,,,,,,,,,,,,,,,,,,,,,,,,,,,,,,,,,,,,,,,,,,,,,,,,,,,,,,,,,/muse/elements/blink
2025-09-03 19:54:50.278,,,,,,,,,,,,,,,,,,,,,,,,,,,,,,,,,,,,,,,,,,,,,,,,,,,,,,,,,,/muse/elements/blink
2025-09-03 19:54:50.590,0.0,1.5003964,1.1710694,1.197733,0.0,1.2364241,0.38912737,0.82000446,0.0,0.90593463,0.66731554,0.8871432,0.0,0.5123363,0.51500064,0.9380369,0.0,0.31066704,-0.18540838,0.8217411,1270.863,872.31885,614.7653,1093.7618,917.54565,959.7632,971.3575,1450.0,0.55889892578125,-0.536376953125,1.11474609375,-88.33847045898438,-124.96734619140625,244.9700927734375,8.366005292897503,8.139534129652146,6.09076508594998,5.203587726199842,0.0,0.0,0.0,0.0,0.0,0.0,0.0,0.0,0.0,0.0,0.0,0.0,107.13399,1,2.0,1.0,1.0,4.0,67.29
2025-09-03 19:54:51.279,,,,,,,,,,,,,,,,,,,,,,,,,,,,,,,,,,,,,,,,,,,,,,,,,,,,,,,,,,/muse/elements/blink
2025-09-03 19:54:51.594,0.0,1.5003964,1.1710694,1.197733,0.0,1.2364241,0.38912737,0.82000446,0.0,0.90593463,0.66731554,0.8871432,0.0,0.5123363,0.51500064,0.9380369,0.0,0.31066704,-0.18540838,0.8217411,645.91956,740.26733,734.957,1037.0293,853.2015,889.84314,902.057,1444.6896,0.4560546875,0.20550537109375,1.02532958984375,11.484375,-8.112335205078125,38.647613525390625,8.33539613284696,8.014778151300575,6.060522137186181,5.071232863648285,0.0,0.0,0.0,0.0,0.0,0.0,0.0,0.0,0.0,0.0,0.0,0.0,109.95455,1,2.0,1.0,1.0,4.0,67.29
2025-09-03 19:54:52.007,,,,,,,,,,,,,,,,,,,,,,,,,,,,,,,,,,,,,,,,,,,,,,,,,,,,,,,,,,/muse/elements/blink
2025-09-03 19:54:52.378,,,,,,,,,,,,,,,,,,,,,,,,,,,,,,,,,,,,,,,,,,,,,,,,,,,,,,,,,,/muse/elements/blink
2025-09-03 19:54:52.608,0.0,1.5003964,1.1710694,1.197733,0.0,1.2364241,0.38912737,0.82000446,0.0,0.90593463,0.66731554,0.8871432,0.0,0.5123363,0.51500064,0.9380369,0.0,0.31066704,-0.18540838,0.8217411,574.76044,743.36505,734.4259,602.1089,856.3877,879.31085,882.23157,1429.4666,0.51385498046875,-0.0819091796875,0.88037109375,-1.024322509765625,-3.42437744140625,0.73272705078125,8.097908113391984,7.751319648093841,5.805730634432444,4.846684309658346,0.0,0.0,0.0,0.0,0.0,0.0,0.0,0.0,0.0,0.0,0.0,0.0,111.43459,1,2.0,1.0,1.0,2.0,67.29
